Date: 15-08-25
Time: 14:03:02 PM

Exp. Conditions:
Cyclic voltammetry
Start potential (V) = .0000
First vertex potential (V) = .5000
Second vertex potential (V) = -.3000
Step potential (V) = .00500
Scan rate (V/s) = .05000
Equilibration time (s) = 
Number of Data Points =  321 

 Potential	  Scan 1   
 0.001733	-1.025696E-05
 0.008688	-9.115601E-06
 0.013651	-8.859253E-06
 0.018607	-8.609009E-06
 0.023566	-8.370972E-06
 0.028525	-8.023071E-06
 0.033484	-7.617188E-06
 0.038440	-7.217407E-06
 0.043396	-6.726074E-06
 0.048355	-6.155396E-06
 0.053314	-5.484009E-06
 0.058289	-4.702454E-06
 0.063232	-3.777161E-06
 0.068207	-2.674866E-06
 0.073151	-1.427002E-06
 0.078125	5.462646E-08
 0.083069	1.760864E-06
 0.088013	3.807983E-06
 0.092987	6.042480E-06
 0.097931	8.547974E-06
 0.102875	1.149902E-05
 0.107849	1.470947E-05
 0.112793	1.827087E-05
 0.117767	2.214966E-05
 0.122711	2.637634E-05
 0.127686	3.090820E-05
 0.132629	3.560181E-05
 0.137604	4.065247E-05
 0.142548	4.588623E-05
 0.147491	5.123901E-05
 0.152466	5.664063E-05
 0.157410	6.207275E-05
 0.162354	6.744385E-05
 0.167328	7.257080E-05
 0.172272	7.742310E-05
 0.177216	8.193970E-05
 0.182159	8.602905E-05
 0.187134	8.953857E-05
 0.192108	9.237671E-05
 0.197052	9.451294E-05
 0.201996	9.585571E-05
 0.206970	9.646606E-05
 0.211914	9.625244E-05
 0.216858	9.530640E-05
 0.221802	9.371948E-05
 0.226776	9.161377E-05
 0.231720	8.908081E-05
 0.236664	8.630371E-05
 0.241638	8.334351E-05
 0.246582	8.032227E-05
 0.251526	7.736206E-05
 0.256500	7.446289E-05
 0.261444	7.171631E-05
 0.266388	6.912231E-05
 0.271362	6.668091E-05
 0.276306	6.436157E-05
 0.281250	6.225586E-05
 0.286194	6.027222E-05
 0.291168	5.841064E-05
 0.296112	5.670166E-05
 0.301056	5.511475E-05
 0.306000	5.361938E-05
 0.310974	5.221558E-05
 0.315918	5.093384E-05
 0.320892	4.971313E-05
 0.325836	4.860535E-05
 0.330780	4.754333E-05
 0.335754	4.652710E-05
 0.340698	4.558716E-05
 0.345642	4.468384E-05
 0.350616	4.383240E-05
 0.355560	4.304199E-05
 0.360504	4.227295E-05
 0.365479	4.154663E-05
 0.370422	4.083862E-05
 0.375366	4.018860E-05
 0.380341	3.954773E-05
 0.385284	3.894043E-05
 0.390228	3.835754E-05
 0.395203	3.779602E-05
 0.400146	3.725891E-05
 0.405090	3.673706E-05
 0.410065	3.623352E-05
 0.415009	3.575134E-05
 0.419952	3.527527E-05
 0.424896	3.482361E-05
 0.429871	3.437805E-05
 0.434814	3.394470E-05
 0.439758	3.351746E-05
 0.444733	3.311157E-05
 0.449677	3.270569E-05
 0.454620	3.231506E-05
 0.459595	3.192139E-05
 0.464539	3.154602E-05
 0.469482	3.117371E-05
 0.474457	3.081055E-05
 0.479401	3.044739E-05
 0.484344	3.009338E-05
 0.489288	2.974548E-05
 0.494263	2.939758E-05
 0.499207	2.905273E-05
 0.500793	2.663269E-05
 0.495453	2.423096E-05
 0.490417	2.319031E-05
 0.485382	2.243042E-05
 0.480347	2.179871E-05
 0.475311	2.125854E-05
 0.470276	2.075500E-05
 0.465240	2.030029E-05
 0.460205	1.987610E-05
 0.455170	1.947632E-05
 0.450134	1.909485E-05
 0.445099	1.872864E-05
 0.440063	1.837769E-05
 0.434998	1.804199E-05
 0.429962	1.771545E-05
 0.424927	1.739807E-05
 0.419922	1.708679E-05
 0.414856	1.678467E-05
 0.409821	1.645813E-05
 0.404785	1.617737E-05
 0.399750	1.590576E-05
 0.394745	1.563110E-05
 0.389709	1.535645E-05
 0.384674	1.510010E-05
 0.379639	1.488342E-05
 0.374573	1.459045E-05
 0.369537	1.430054E-05
 0.364532	1.402893E-05
 0.359497	1.375732E-05
 0.354462	1.347351E-05
 0.349426	1.321106E-05
 0.344391	1.293030E-05
 0.339355	1.264648E-05
 0.334320	1.237488E-05
 0.329285	1.207886E-05
 0.324249	1.178894E-05
 0.319244	1.145630E-05
 0.314178	1.112061E-05
 0.309143	1.077576E-05
 0.304138	1.041565E-05
 0.299103	1.000671E-05
 0.294067	9.573364E-06
 0.289032	9.094238E-06
 0.283997	8.554077E-06
 0.278961	7.968140E-06
 0.273926	7.308960E-06
 0.268890	6.564331E-06
 0.263885	5.722046E-06
 0.258850	4.760742E-06
 0.253815	3.670044E-06
 0.248779	2.416992E-06
 0.243744	9.854126E-07
 0.238708	-6.362915E-07
 0.233704	-2.499084E-06
 0.228638	-4.545288E-06
 0.223633	-6.903076E-06
 0.218597	-9.582520E-06
 0.213562	-1.255798E-05
 0.208527	-1.585999E-05
 0.203491	-1.950073E-05
 0.198486	-2.346802E-05
 0.193451	-2.769775E-05
 0.188416	-3.223877E-05
 0.183380	-3.711853E-05
 0.178345	-4.210205E-05
 0.173309	-4.726868E-05
 0.168304	-5.255127E-05
 0.163269	-5.786133E-05
 0.158234	-6.307983E-05
 0.153198	-6.814575E-05
 0.148163	-7.296753E-05
 0.143127	-7.748413E-05
 0.138123	-8.151245E-05
 0.133087	-8.505249E-05
 0.128052	-8.792114E-05
 0.123016	-9.011841E-05
 0.117981	-9.155273E-05
 0.112946	-9.216309E-05
 0.107941	-9.197998E-05
 0.102905	-9.103394E-05
 0.097870	-8.938599E-05
 0.092865	-8.724976E-05
 0.087830	-8.462524E-05
 0.082794	-8.178711E-05
 0.077759	-7.876587E-05
 0.072723	-7.571411E-05
 0.067688	-7.269287E-05
 0.062653	-6.976318E-05
 0.057617	-6.698608E-05
 0.052612	-6.436157E-05
 0.047571	-6.188965E-05
 0.042535	-5.966187E-05
 0.037509	-5.746460E-05
 0.032483	-5.551147E-05
 0.027457	-5.361938E-05
 0.022424	-5.194092E-05
 0.017395	-5.038452E-05
 0.012366	-4.889526E-05
 0.007355	-4.750366E-05
 0.002307	-4.627075E-05
 -0.002719	-4.506531E-05
 -0.007751	-4.395142E-05
 -0.012775	-4.290771E-05
 -0.017807	-4.191895E-05
 -0.022827	-4.099731E-05
 -0.027856	-4.013367E-05
 -0.032883	-3.931885E-05
 -0.037912	-3.855286E-05
 -0.042941	-3.780212E-05
 -0.047968	-3.712463E-05
 -0.052948	-3.647461E-05
 -0.057953	-3.584290E-05
 -0.062988	-3.525085E-05
 -0.068024	-3.469238E-05
 -0.073029	-3.416748E-05
 -0.078064	-3.366394E-05
 -0.083099	-3.321533E-05
 -0.088104	-3.269043E-05
 -0.093140	-3.226624E-05
 -0.098175	-3.181152E-05
 -0.103180	-3.140564E-05
 -0.108215	-3.101196E-05
 -0.113251	-3.063965E-05
 -0.118256	-3.027649E-05
 -0.123291	-2.994995E-05
 -0.128296	-2.961121E-05
 -0.133331	-2.920837E-05
 -0.138367	-2.893677E-05
 -0.143372	-2.852478E-05
 -0.148407	-2.840271E-05
 -0.153412	-2.812195E-05
 -0.158447	-2.786255E-05
 -0.163452	-2.760620E-05
 -0.168488	-2.733459E-05
 -0.173492	-2.710876E-05
 -0.178528	-2.688599E-05
 -0.183533	-2.666931E-05
 -0.188568	-2.646179E-05
 -0.193604	-2.624207E-05
 -0.198608	-2.604370E-05
 -0.203644	-2.586670E-05
 -0.208679	-2.568359E-05
 -0.213684	-2.551270E-05
 -0.218719	-2.532654E-05
 -0.223724	-2.519531E-05
 -0.228760	-2.505188E-05
 -0.233795	-2.490540E-05
 -0.238800	-2.481689E-05
 -0.243835	-2.464294E-05
 -0.248871	-2.453308E-05
 -0.253876	-2.443237E-05
 -0.258911	-2.432861E-05
 -0.263947	-2.424622E-05
 -0.268951	-2.414246E-05
 -0.273987	-2.409058E-05
 -0.278992	-2.401733E-05
 -0.284027	-2.396851E-05
 -0.289063	-2.393188E-05
 -0.294067	-2.391052E-05
 -0.297852	-2.377930E-05
 -0.292877	-1.642151E-05
 -0.287903	-1.600647E-05
 -0.282928	-1.572876E-05
 -0.277954	-1.546936E-05
 -0.273010	-1.524658E-05
 -0.268036	-1.502075E-05
 -0.263062	-1.484070E-05
 -0.258118	-1.466675E-05
 -0.253143	-1.450195E-05
 -0.248169	-1.430969E-05
 -0.243195	-1.418457E-05
 -0.238251	-1.405640E-05
 -0.233276	-1.394653E-05
 -0.228302	-1.383057E-05
 -0.223358	-1.371460E-05
 -0.218384	-1.359558E-05
 -0.213440	-1.353760E-05
 -0.208466	-1.339722E-05
 -0.203491	-1.330872E-05
 -0.198547	-1.320496E-05
 -0.193573	-1.312866E-05
 -0.188599	-1.303711E-05
 -0.183624	-1.296997E-05
 -0.178680	-1.287537E-05
 -0.173706	-1.281128E-05
 -0.168732	-1.271973E-05
 -0.163788	-1.266174E-05
 -0.158813	-1.259155E-05
 -0.153870	-1.253357E-05
 -0.148895	-1.246948E-05
 -0.143951	-1.240234E-05
 -0.138977	-1.235657E-05
 -0.134033	-1.227112E-05
 -0.129059	-1.222839E-05
 -0.124084	-1.216431E-05
 -0.119141	-1.211243E-05
 -0.114166	-1.204834E-05
 -0.109222	-1.199646E-05
 -0.104248	-1.194763E-05
 -0.099304	-1.188354E-05
 -0.094330	-1.183777E-05
 -0.089355	-1.178589E-05
 -0.084412	-1.172791E-05
 -0.079437	-1.168213E-05
 -0.074493	-1.163330E-05
 -0.069519	-1.157227E-05
 -0.064575	-1.151428E-05
 -0.059601	-1.145935E-05
 -0.054626	-1.139832E-05
 -0.049652	-1.133423E-05
 -0.044760	-1.127625E-05
 -0.039792	-1.120605E-05
 -0.034836	-1.113586E-05
 -0.029874	-1.106567E-05
 -0.024908	-1.096802E-05
 -0.019946	-1.087646E-05
 -0.014981	-1.077271E-05
 -0.010022	-1.067200E-05
 -0.005048	-1.052856E-05
 -0.000098	-1.037598E-05

 Potential	  Scan 2   
 0.004868	-1.021118E-05
 0.009830	-1.008301E-05
 0.014789	-9.790039E-06
 0.019748	-9.539795E-06
 0.024707	-9.249878E-06
 0.029669	-8.901978E-06
 0.034625	-8.486938E-06
 0.039587	-8.026123E-06
 0.044547	-7.473755E-06
 0.049530	-6.817627E-06
 0.054474	-6.072998E-06
 0.059448	-5.172729E-06
 0.064392	-4.151917E-06
 0.069366	-2.936707E-06
 0.074310	-1.528015E-06
 0.079285	8.850098E-08
 0.084229	1.972351E-06
 0.089203	4.144592E-06
 0.094147	6.668091E-06
 0.099121	9.426880E-06
 0.104065	1.255188E-05
 0.109039	1.598511E-05
 0.113983	1.974487E-05
 0.118958	2.388000E-05
 0.123901	2.832642E-05
 0.128876	3.299255E-05
 0.133820	3.785706E-05
 0.138763	4.313049E-05
 0.143738	4.847717E-05
 0.148682	5.386353E-05
 0.153656	5.923462E-05
 0.158600	6.460571E-05
 0.163574	6.994629E-05
 0.168518	7.489014E-05
 0.173492	7.955933E-05
 0.178436	8.377075E-05
 0.183411	8.746338E-05
 0.188385	9.060669E-05
 0.193329	9.301758E-05
 0.198273	9.463501E-05
 0.203247	9.552002E-05
 0.208221	9.558105E-05
 0.213165	9.490967E-05
 0.218109	9.353638E-05
 0.223083	9.161377E-05
 0.228027	8.923340E-05
 0.233002	8.657837E-05
 0.237946	8.367920E-05
 0.242920	8.065796E-05
 0.247864	7.766724E-05
 0.252838	7.476807E-05
 0.257813	7.199097E-05
 0.262756	6.933594E-05
 0.267700	6.680298E-05
 0.272675	6.445313E-05
 0.277649	6.225586E-05
 0.282593	6.021118E-05
 0.287567	5.831909E-05
 0.292511	5.654907E-05
 0.297455	5.487061E-05
 0.302429	5.334473E-05
 0.307373	5.191040E-05
 0.312347	5.056763E-05
 0.317322	4.933777E-05
 0.322266	4.815979E-05
 0.327240	4.702759E-05
 0.332184	4.599609E-05
 0.337128	4.501343E-05
 0.342102	4.407654E-05
 0.347046	4.319458E-05
 0.352020	4.236145E-05
 0.356964	4.157104E-05
 0.361938	4.080811E-05
 0.366882	4.008484E-05
 0.371857	3.939819E-05
 0.376801	3.872986E-05
 0.381775	3.810425E-05
 0.386719	3.750000E-05
 0.391693	3.692627E-05
 0.396637	3.635559E-05
 0.401611	3.581238E-05
 0.406555	3.529663E-05
 0.411530	3.478088E-05
 0.416473	3.430481E-05
 0.421448	3.383484E-05
 0.426392	3.337097E-05
 0.431366	3.292542E-05
 0.436310	3.249512E-05
 0.441284	3.206787E-05
 0.446228	3.166809E-05
 0.451202	3.126526E-05
 0.456146	3.088074E-05
 0.461121	3.049927E-05
 0.466064	3.013306E-05
 0.471039	2.976990E-05
 0.475983	2.941284E-05
 0.480957	2.904663E-05
 0.485901	2.872620E-05
 0.490875	2.839355E-05
 0.495819	2.812805E-05
 0.501099	2.776184E-05
 0.498505	2.425537E-05
 0.493439	2.282410E-05
 0.488434	2.198792E-05
 0.483398	2.133789E-05
 0.478363	2.079468E-05
 0.473358	2.029724E-05
 0.468323	1.985474E-05
 0.463287	1.943665E-05
 0.458252	1.904602E-05
 0.453217	1.867065E-05
 0.448212	1.826172E-05
 0.443176	1.796570E-05
 0.438141	1.764526E-05
 0.433105	1.732483E-05
 0.428101	1.701050E-05
 0.423065	1.671448E-05
 0.418030	1.641541E-05
 0.413025	1.612244E-05
 0.407990	1.584473E-05
 0.402954	1.556702E-05
 0.397919	1.528625E-05
 0.392883	1.501465E-05
 0.387878	1.474609E-05
 0.382843	1.447754E-05
 0.377808	1.420898E-05
 0.372803	1.394653E-05
 0.367767	1.368103E-05
 0.362732	1.341858E-05
 0.357727	1.316223E-05
 0.352692	1.289368E-05
 0.347656	1.262207E-05
 0.342651	1.235962E-05
 0.337616	1.207886E-05
 0.332581	1.179810E-05
 0.327576	1.150818E-05
 0.322540	1.118164E-05
 0.317505	1.089172E-05
 0.312500	1.055298E-05
 0.307465	1.019897E-05
 0.302429	9.826660E-06
 0.297424	9.417725E-06
 0.292389	8.963013E-06
 0.287384	8.493042E-06
 0.282349	7.931519E-06
 0.277313	7.342529E-06
 0.272308	6.683350E-06
 0.267273	5.902100E-06
 0.262238	5.068970E-06
 0.257233	4.085388E-06
 0.252197	2.953491E-06
 0.247162	1.678467E-06
 0.242157	2.273560E-07
 0.237122	-1.439209E-06
 0.232117	-3.323975E-06
 0.227081	-5.398560E-06
 0.222046	-7.827759E-06
 0.217041	-1.053772E-05
 0.212006	-1.355896E-05
 0.207001	-1.690369E-05
 0.201965	-2.062378E-05
 0.196930	-2.463379E-05
 0.191925	-2.892761E-05
 0.186890	-3.351746E-05
 0.181854	-3.838806E-05
 0.176849	-4.342957E-05
 0.171814	-4.861145E-05
 0.166779	-5.389404E-05
 0.161774	-5.920410E-05
 0.156738	-6.439209E-05
 0.151733	-6.942749E-05
 0.146698	-7.431030E-05
 0.141663	-7.867432E-05
 0.136658	-8.273315E-05
 0.131622	-8.679199E-05
 0.126617	-8.926392E-05
 0.121582	-9.118652E-05
 0.116577	-9.237671E-05
 0.111542	-9.283447E-05
 0.106506	-9.246826E-05
 0.101501	-9.136963E-05
 0.096466	-8.963013E-05
 0.091461	-8.734131E-05
 0.086426	-8.471680E-05
 0.081390	-8.178711E-05
 0.076385	-7.873535E-05
 0.071350	-7.568359E-05
 0.066345	-7.269287E-05
 0.061310	-6.979370E-05
 0.056274	-6.701660E-05
 0.051270	-6.445313E-05
 0.046231	-6.201172E-05
 0.041205	-5.978394E-05
 0.036182	-5.764771E-05
 0.031161	-5.572510E-05
 0.026141	-5.389404E-05
 0.021118	-5.221558E-05
 0.016095	-5.065918E-05
 0.011075	-4.918823E-05
 0.006070	-4.784546E-05
 0.001035	-4.656677E-05
 -0.003976	-4.537964E-05
 -0.009009	-4.428101E-05
 -0.014032	-4.325256E-05
 -0.019052	-4.227295E-05
 -0.024072	-4.135742E-05
 -0.029092	-4.049988E-05
 -0.034116	-3.966675E-05
 -0.039142	-3.890991E-05
 -0.044162	-3.818054E-05
 -0.049185	-3.749084E-05
 -0.054169	-3.683167E-05
 -0.059174	-3.620605E-05
 -0.064209	-3.561707E-05
 -0.069214	-3.505249E-05
 -0.074249	-3.450623E-05
 -0.079254	-3.399353E-05
 -0.084290	-3.349915E-05
 -0.089294	-3.303528E-05
 -0.094299	-3.258057E-05
 -0.099335	-3.215027E-05
 -0.104340	-3.173828E-05
 -0.109375	-3.134766E-05
 -0.114410	-3.091736E-05
 -0.119415	-3.059998E-05
 -0.124420	-3.024292E-05
 -0.129456	-2.989197E-05
 -0.134460	-2.957153E-05
 -0.139496	-2.926331E-05
 -0.144501	-2.902527E-05
 -0.149506	-2.865601E-05
 -0.154541	-2.843933E-05
 -0.159546	-2.810669E-05
 -0.164581	-2.786255E-05
 -0.169586	-2.759094E-05
 -0.174622	-2.736206E-05
 -0.179626	-2.712402E-05
 -0.184662	-2.687073E-05
 -0.189667	-2.671509E-05
 -0.194702	-2.646790E-05
 -0.199707	-2.626953E-05
 -0.204742	-2.607117E-05
 -0.209778	-2.588196E-05
 -0.214783	-2.570190E-05
 -0.219788	-2.551880E-05
 -0.224823	-2.536621E-05
 -0.229828	-2.521057E-05
 -0.234863	-2.507019E-05
 -0.239868	-2.494812E-05
 -0.244904	-2.481689E-05
 -0.249908	-2.467346E-05
 -0.254944	-2.456970E-05
 -0.259949	-2.447205E-05
 -0.264984	-2.435608E-05
 -0.269989	-2.427063E-05
 -0.274994	-2.419434E-05
 -0.280029	-2.411804E-05
 -0.285034	-2.406006E-05
 -0.290039	-2.405396E-05
 -0.295074	-2.398071E-05
 -0.297119	-2.011108E-05
 -0.292114	-1.645508E-05
 -0.287170	-1.612549E-05
 -0.282166	-1.583862E-05
 -0.277222	-1.560669E-05
 -0.272247	-1.539917E-05
 -0.267273	-1.520081E-05
 -0.262299	-1.504822E-05
 -0.257324	-1.486511E-05
 -0.252350	-1.469727E-05
 -0.247375	-1.456909E-05
 -0.242432	-1.442261E-05
 -0.237457	-1.429138E-05
 -0.232483	-1.419067E-05
 -0.227509	-1.405945E-05
 -0.222534	-1.392822E-05
 -0.217560	-1.383057E-05
 -0.212616	-1.372986E-05
 -0.207642	-1.363831E-05
 -0.202667	-1.354675E-05
 -0.197693	-1.345215E-05
 -0.192749	-1.335449E-05
 -0.187775	-1.222534E-05
 -0.182800	-1.315002E-05
 -0.177826	-1.311340E-05
 -0.172852	-1.301880E-05
 -0.167877	-1.297302E-05
 -0.162933	-1.287842E-05
 -0.157959	-1.280518E-05
 -0.152985	-1.274414E-05
 -0.148010	-1.267090E-05
 -0.143036	-1.260986E-05
 -0.138092	-1.395264E-05
 -0.133118	-1.450500E-05
 -0.128143	-1.234131E-05
 -0.123169	-1.111450E-05
 -0.118225	-1.209106E-05
 -0.113251	-1.215515E-05
 -0.108307	-1.213989E-05
 -0.103333	-1.210938E-05
 -0.098358	-1.205750E-05
 -0.093384	-1.201172E-05
 -0.088440	-1.195984E-05
 -0.083466	-1.190491E-05
 -0.078491	-1.185608E-05
 -0.073547	-1.180725E-05
 -0.068573	-1.174316E-05
 -0.063599	-1.168518E-05
 -0.058624	-1.162720E-05
 -0.053650	-1.156311E-05
 -0.048749	-1.150513E-05
 -0.043784	-1.143799E-05
 -0.038815	-1.135864E-05
 -0.033850	-1.130066E-05
 -0.028885	-1.121216E-05
 -0.023917	-1.111755E-05
 -0.018951	-1.101990E-05
 -0.013986	-1.091003E-05
 -0.009021	-1.078796E-05
 -0.004041	-1.062317E-05

 Potential	  Scan 3   
 0.000912	-1.049805E-05
 0.005890	-1.032410E-05
 0.010843	-1.012573E-05
 0.015811	-9.875488E-06
 0.020776	-9.609985E-06
 0.025745	-9.310913E-06
 0.030710	-8.947754E-06
 0.035675	-8.514404E-06
 0.040643	-8.026123E-06
 0.045609	-7.452393E-06
 0.050568	-6.762695E-06
 0.055542	-5.993652E-06
 0.060516	-5.068970E-06
 0.065491	-3.996887E-06
 0.070465	-2.720032E-06
 0.075409	-1.253662E-06
 0.080383	4.110718E-07
 0.085358	2.397156E-06
 0.090302	4.644470E-06
 0.095276	7.235718E-06
 0.100250	1.010742E-05
 0.105194	1.330566E-05
 0.110168	1.685791E-05
 0.115143	2.075195E-05
 0.120087	2.496338E-05
 0.125061	2.947693E-05
 0.130035	3.429565E-05
 0.134979	3.922729E-05
 0.139954	4.450073E-05
 0.144928	4.986572E-05
 0.149872	5.532837E-05
 0.154846	6.076050E-05
 0.159790	6.619263E-05
 0.164764	7.141113E-05
 0.169739	7.635498E-05
 0.174713	8.093262E-05
 0.179657	8.502197E-05
 0.184631	8.862305E-05
 0.189606	9.155273E-05
 0.194580	9.375000E-05
 0.199524	9.518433E-05
 0.204498	9.588623E-05
 0.209473	9.576416E-05
 0.214417	9.487915E-05
 0.219391	9.338379E-05
 0.224335	9.133911E-05
 0.229309	8.883667E-05
 0.234283	8.605957E-05
 0.239227	8.312988E-05
 0.244202	8.013916E-05
 0.249146	7.717896E-05
 0.254120	7.427979E-05
 0.259094	7.150269E-05
 0.264038	6.887817E-05
 0.269012	6.640625E-05
 0.273987	6.408691E-05
 0.278931	6.188965E-05
 0.283905	5.987549E-05
 0.288879	5.798340E-05
 0.293823	5.624390E-05
 0.298798	5.462646E-05
 0.303772	5.310059E-05
 0.308716	5.166626E-05
 0.313690	5.032349E-05
 0.318665	4.912109E-05
 0.323608	4.795227E-05
 0.328583	4.686279E-05
 0.333557	4.580994E-05
 0.338501	4.482422E-05
 0.343475	4.388733E-05
 0.348450	4.301758E-05
 0.353394	4.218750E-05
 0.358368	4.138794E-05
 0.363342	4.064026E-05
 0.368286	3.991089E-05
 0.373260	3.921814E-05
 0.378235	3.855591E-05
 0.383209	3.792725E-05
 0.388153	3.732910E-05
 0.393127	3.674622E-05
 0.398102	3.614807E-05
 0.403046	3.563538E-05
 0.408020	3.510742E-05
 0.412994	3.460388E-05
 0.417938	3.411865E-05
 0.422913	3.363342E-05
 0.427887	3.316650E-05
 0.432831	3.273010E-05
 0.437805	3.228149E-05
 0.442780	3.187561E-05
 0.447723	3.050232E-05
 0.452698	3.114014E-05
 0.457672	3.070068E-05
 0.462616	3.031616E-05
 0.467590	2.992249E-05
 0.472534	2.955933E-05
 0.477509	2.919922E-05
 0.482483	2.884216E-05
 0.487427	2.849731E-05
 0.492401	2.816162E-05
 0.497345	2.784424E-05
 0.499329	2.596130E-05
 0.494293	2.326355E-05
 0.489258	2.229309E-05
 0.484222	2.160034E-05
 0.479218	2.101135E-05
 0.474182	2.052002E-05
 0.469147	2.006226E-05
 0.464142	1.963501E-05
 0.459106	1.921997E-05
 0.454071	1.885986E-05
 0.449066	1.849976E-05
 0.444031	1.816101E-05
 0.439026	1.781616E-05
 0.433990	1.749573E-05
 0.428955	1.718750E-05
 0.423920	1.687317E-05
 0.418915	1.658936E-05
 0.413879	1.629639E-05
 0.408844	1.600647E-05
 0.403839	1.571350E-05
 0.398804	1.542053E-05
 0.393799	1.517029E-05
 0.388763	1.489868E-05
 0.383759	1.462097E-05
 0.378723	1.434937E-05
 0.373688	1.409607E-05
 0.368683	1.382446E-05
 0.363647	1.355286E-05
 0.358643	1.329651E-05
 0.353607	1.299438E-05
 0.348572	1.273804E-05
 0.343567	1.247864E-05
 0.338531	1.220398E-05
 0.333527	1.192322E-05
 0.328491	1.162720E-05
 0.323456	1.126709E-05
 0.318451	1.100464E-05
 0.313416	1.066589E-05
 0.308380	1.030884E-05
 0.303375	9.933472E-06
 0.298340	9.530640E-06
 0.293335	9.088135E-06
 0.288300	8.612061E-06
 0.283295	8.084106E-06
 0.278259	7.479858E-06
 0.273254	6.811523E-06
 0.268219	5.999756E-06
 0.263214	5.200195E-06
 0.258179	4.263916E-06
 0.253143	3.152771E-06
 0.248138	1.903381E-06
 0.243103	4.794312E-07
 0.238098	-1.147461E-06
 0.233063	-2.988586E-06
 0.228058	-5.007935E-06
 0.223022	-7.376099E-06
 0.218018	-1.002197E-05
 0.212982	-1.299133E-05
 0.207977	-1.628418E-05
 0.202972	-1.990662E-05
 0.197937	-2.384033E-05
 0.192932	-2.807007E-05
 0.187897	-3.264465E-05
 0.182861	-3.742371E-05
 0.177856	-4.243774E-05
 0.172821	-4.759827E-05
 0.167816	-5.288696E-05
 0.162781	-5.816650E-05
 0.157776	-6.341553E-05
 0.152740	-6.851196E-05
 0.147736	-7.342529E-05
 0.142700	-7.791138E-05
 0.137695	-8.203125E-05
 0.132660	-8.557129E-05
 0.127655	-8.853149E-05
 0.122620	-9.072876E-05
 0.117584	-9.219360E-05
 0.112579	-9.289551E-05
 0.107574	-9.271240E-05
 0.102539	-9.185791E-05
 0.097534	-9.033203E-05
 0.092499	-8.816528E-05
 0.087494	-8.557129E-05
 0.082458	-8.273315E-05
 0.077454	-7.974243E-05
 0.072418	-7.669067E-05
 0.067413	-7.366943E-05
 0.062378	-7.073975E-05
 0.057373	-6.796265E-05
 0.052338	-6.533813E-05
 0.047324	-6.283569E-05
 0.042303	-6.054688E-05
 0.037283	-5.838013E-05
 0.032266	-5.639648E-05
 0.027243	-5.456543E-05
 0.022226	-5.285645E-05
 0.017209	-5.126953E-05
 0.012192	-4.973755E-05
 0.007190	-4.834900E-05
 0.002158	-4.707031E-05
 -0.002856	-4.587708E-05
 -0.007877	-4.474487E-05
 -0.012891	-4.369202E-05
 -0.017911	-4.268494E-05
 -0.022928	-4.175415E-05
 -0.027948	-4.087524E-05
 -0.032968	-4.004517E-05
 -0.037985	-3.927307E-05
 -0.043002	-3.852234E-05
 -0.048026	-3.781128E-05
 -0.052979	-3.716125E-05
 -0.058014	-3.651733E-05
 -0.063019	-3.593445E-05
 -0.068054	-3.533020E-05
 -0.073059	-3.480530E-05
 -0.078064	-3.426208E-05
 -0.083099	-3.376465E-05
 -0.088104	-3.328857E-05
 -0.093140	-3.283691E-05
 -0.098145	-3.239441E-05
 -0.103149	-3.198853E-05
 -0.108185	-3.156738E-05
 -0.113190	-3.118286E-05
 -0.118195	-3.081055E-05
 -0.123230	-3.044739E-05
 -0.128235	-3.011169E-05
 -0.133240	-2.977295E-05
 -0.138275	-2.946167E-05
 -0.143280	-2.914734E-05
 -0.148315	-2.884521E-05
 -0.153320	-2.856140E-05
 -0.158325	-2.827759E-05
 -0.163330	-2.802734E-05
 -0.168365	-2.774658E-05
 -0.173370	-2.751160E-05
 -0.178375	-2.729492E-05
 -0.183411	-2.705078E-05
 -0.188416	-2.682495E-05
 -0.193451	-2.664185E-05
 -0.198456	-2.640076E-05
 -0.203461	-2.620239E-05
 -0.208496	-2.601318E-05
 -0.213501	-2.583313E-05
 -0.218506	-2.564697E-05
 -0.223541	-2.548218E-05
 -0.228546	-2.531738E-05
 -0.233551	-2.516174E-05
 -0.238586	-2.502747E-05
 -0.243591	-2.489929E-05
 -0.248596	-2.476807E-05
 -0.253632	-2.465515E-05
 -0.258636	-2.453308E-05
 -0.263641	-2.444153E-05
 -0.268677	-2.432251E-05
 -0.273682	-2.426453E-05
 -0.278687	-2.415771E-05
 -0.283722	-2.406311E-05
 -0.288727	-2.402039E-05
 -0.293762	-2.397766E-05
 -0.298523	-2.396240E-05
 -0.293793	-1.659851E-05
 -0.288818	-1.620483E-05
 -0.283844	-1.596375E-05
 -0.278870	-1.568604E-05
 -0.273895	-1.549683E-05
 -0.268921	-1.529236E-05
 -0.263977	-1.519470E-05
 -0.258972	-1.495056E-05
 -0.254028	-1.481018E-05
 -0.249023	-1.465149E-05
 -0.244049	-1.456299E-05
 -0.239105	-1.438904E-05
 -0.234131	-1.425171E-05
 -0.229156	-1.419067E-05
 -0.224182	-1.404419E-05
 -0.219208	-1.391907E-05
 -0.214233	-1.385193E-05
 -0.209290	-1.371765E-05
 -0.204315	-1.362610E-05
 -0.199341	-1.351929E-05
 -0.194366	-1.344604E-05
 -0.189392	-1.336365E-05
 -0.184418	-1.325073E-05
 -0.179474	-1.318970E-05
 -0.174500	-1.307373E-05
 -0.169525	-1.301880E-05
 -0.164551	-1.294250E-05
 -0.159576	-1.286316E-05
 -0.154602	-1.280212E-05
 -0.149628	-1.273193E-05
 -0.144684	-1.265564E-05
 -0.139709	-1.260681E-05
 -0.134735	-1.259155E-05
 -0.129791	-1.247864E-05
 -0.124786	-1.242065E-05
 -0.119843	-1.236572E-05
 -0.114868	-1.230774E-05
 -0.109894	-1.224670E-05
 -0.104919	-1.218872E-05
 -0.099945	-1.212769E-05
 -0.094971	-1.207886E-05
 -0.090027	-1.202698E-05
 -0.085052	-1.196594E-05
 -0.080078	-1.190491E-05
 -0.075104	-1.181641E-05
 -0.070160	-1.177673E-05
 -0.065186	-1.171570E-05
 -0.060211	-1.166992E-05
 -0.055237	-1.160583E-05
 -0.050262	-1.154480E-05
 -0.045352	-1.147156E-05
 -0.040381	-1.140442E-05
 -0.035410	-1.132813E-05
 -0.030444	-1.124573E-05
 -0.025476	-1.115723E-05
 -0.020505	-1.105957E-05
 -0.015533	-1.094971E-05
 -0.010565	-1.082153E-05
 -0.005594	-1.069946E-05
 -0.000626	-1.055298E-05

 Potential	  Scan 4   
 0.004346	-1.036682E-05
 0.009314	-1.023560E-05
 0.014288	-9.927368E-06
 0.019260	-9.674072E-06
 0.024228	-9.368896E-06
 0.029196	-9.017944E-06
 0.034167	-8.609009E-06
 0.039133	-8.126831E-06
 0.044104	-7.568359E-06
 0.049072	-6.906128E-06
 0.054047	-6.149292E-06
 0.059021	-5.236816E-06
 0.063995	-4.193726E-06
 0.068970	-2.966309E-06
 0.073914	-1.539917E-06
 0.078888	1.083374E-07
 0.083862	2.019348E-06
 0.088806	4.197693E-06
 0.093781	6.750488E-06
 0.098755	9.552002E-06
 0.103729	1.269226E-05
 0.108673	1.620178E-05
 0.113647	1.998901E-05
 0.118622	2.419128E-05
 0.123596	2.864075E-05
 0.128540	3.343201E-05
 0.133514	3.834229E-05
 0.138489	4.359741E-05
 0.143433	4.900513E-05
 0.148407	5.438232E-05
 0.153381	5.990601E-05
 0.158356	6.533813E-05
 0.163300	7.058716E-05
 0.168274	7.562256E-05
 0.173248	8.023071E-05
 0.178223	8.447266E-05
 0.183167	8.819580E-05
 0.188141	9.124756E-05
 0.193115	9.356689E-05
 0.198090	9.527588E-05
 0.203033	9.606934E-05
 0.208008	9.613037E-05
 0.212952	9.542847E-05
 0.217926	9.408569E-05
 0.222900	9.216309E-05
 0.227844	8.975220E-05
 0.232819	8.703613E-05
 0.237793	8.407593E-05
 0.242737	8.108521E-05
 0.247711	7.806396E-05
 0.252686	7.513428E-05
 0.257660	7.235718E-05
 0.262634	6.970215E-05
 0.267578	6.716919E-05
 0.272552	6.478882E-05
 0.277496	6.256104E-05
 0.282471	6.054688E-05
 0.287445	5.862427E-05
 0.292389	5.679321E-05
 0.297363	5.517578E-05
 0.302338	5.358887E-05
 0.307281	5.215454E-05
 0.312256	5.081177E-05
 0.317230	4.956360E-05
 0.322205	4.837036E-05
 0.327179	4.723511E-05
 0.332123	4.618530E-05
 0.337097	4.518127E-05
 0.342041	4.423218E-05
 0.347015	4.331360E-05
 0.351990	4.248962E-05
 0.356934	4.166870E-05
 0.361908	4.090881E-05
 0.366882	4.017639E-05
 0.371826	3.946838E-05
 0.376801	3.873291E-05
 0.381775	3.815613E-05
 0.386719	3.753967E-05
 0.391693	3.691406E-05
 0.396667	3.637085E-05
 0.401611	3.582458E-05
 0.406586	3.528442E-05
 0.411530	3.477173E-05
 0.416504	3.424683E-05
 0.421478	3.379211E-05
 0.426422	3.333435E-05
 0.431396	3.286438E-05
 0.436371	3.243408E-05
 0.441315	3.200989E-05
 0.446289	3.157959E-05
 0.451263	3.118286E-05
 0.456207	3.077698E-05
 0.461182	3.039551E-05
 0.466125	3.001099E-05
 0.471100	2.964478E-05
 0.476044	2.927856E-05
 0.481018	2.893066E-05
 0.485962	2.858582E-05
 0.490936	2.824402E-05
 0.495911	2.791748E-05
 0.501099	2.759094E-05
 0.498596	2.413940E-05
 0.493561	2.275085E-05
 0.488525	2.194519E-05
 0.483490	2.132263E-05
 0.478485	2.079163E-05
 0.473450	2.032166E-05
 0.468414	1.986084E-05
 0.463379	1.945190E-05
 0.458374	1.909180E-05
 0.453339	1.871643E-05
 0.448334	1.838379E-05
 0.443298	1.804504E-05
 0.438263	1.771240E-05
 0.433228	1.740417E-05
 0.428223	1.708984E-05
 0.423187	1.679077E-05
 0.418182	1.650391E-05
 0.413147	1.620483E-05
 0.408112	1.592102E-05
 0.403107	1.563721E-05
 0.398071	1.535950E-05
 0.393036	1.509705E-05
 0.388031	1.483459E-05
 0.382996	1.455688E-05
 0.377991	1.429138E-05
 0.372955	1.403198E-05
 0.367920	1.376038E-05
 0.362915	1.348267E-05
 0.357880	1.322937E-05
 0.352875	1.296082E-05
 0.347839	1.268005E-05
 0.342834	1.239624E-05
 0.337799	1.214600E-05
 0.332794	1.182861E-05
 0.327759	1.156616E-05
 0.322723	1.126099E-05
 0.317719	1.093445E-05
 0.312683	1.059875E-05
 0.307648	1.024780E-05
 0.302643	9.866333E-06
 0.297607	9.442139E-06
 0.292603	8.987427E-06
 0.287598	8.526611E-06
 0.282562	7.980347E-06
 0.277527	7.382202E-06
 0.272522	6.707764E-06
 0.267487	5.957031E-06
 0.262482	5.084229E-06
 0.257477	4.116821E-06
 0.252441	3.015442E-06
 0.247406	1.714783E-06
 0.242401	2.334595E-07
 0.237366	-1.347046E-06
 0.232361	-3.238525E-06
 0.227325	-5.264282E-06
 0.222321	-7.647705E-06
 0.217316	-1.037903E-05
 0.212280	-1.332703E-05
 0.207275	-1.661377E-05
 0.202240	-2.025757E-05
 0.197205	-2.423401E-05
 0.192200	-2.849426E-05
 0.187164	-3.305664E-05
 0.182159	-3.788147E-05
 0.177155	-4.291382E-05
 0.172119	-4.779358E-05
 0.167084	-5.316162E-05
 0.162079	-5.850220E-05
 0.157043	-6.381226E-05
 0.152039	-6.893921E-05
 0.147034	-7.376099E-05
 0.141998	-7.827759E-05
 0.136993	-8.236694E-05
 0.131958	-8.590698E-05
 0.126953	-8.883667E-05
 0.121918	-9.106445E-05
 0.116913	-9.249878E-05
 0.111877	-9.313965E-05
 0.106873	-9.298706E-05
 0.101837	-9.207153E-05
 0.096832	-9.048462E-05
 0.091797	-8.831787E-05
 0.086792	-8.578491E-05
 0.081757	-8.288574E-05
 0.076752	-7.986450E-05
 0.071747	-7.678223E-05
 0.066711	-7.376099E-05
 0.061707	-7.089233E-05
 0.056671	-6.805420E-05
 0.051666	-6.539917E-05
 0.046628	-6.298828E-05
 0.041611	-6.066895E-05
 0.036588	-5.850220E-05
 0.031570	-5.651855E-05
 0.026553	-5.468750E-05
 0.021536	-5.297852E-05
 0.016516	-5.136108E-05
 0.011496	-4.989624E-05
 0.006494	-4.846191E-05
 0.001459	-4.718018E-05
 -0.003549	-4.597168E-05
 -0.008578	-4.486084E-05
 -0.013599	-4.378967E-05
 -0.018619	-4.280090E-05
 -0.023636	-4.185791E-05
 -0.028659	-4.099426E-05
 -0.033679	-4.017029E-05
 -0.038699	-3.937073E-05
 -0.043719	-3.862915E-05
 -0.048737	-3.791809E-05
 -0.053711	-3.725281E-05
 -0.058716	-3.662109E-05
 -0.063751	-3.601074E-05
 -0.068756	-3.545227E-05
 -0.073761	-3.491821E-05
 -0.078796	-3.437195E-05
 -0.083801	-3.386536E-05
 -0.088837	-3.346863E-05
 -0.093842	-3.292542E-05
 -0.098877	-3.248596E-05
 -0.103882	-3.206787E-05
 -0.108887	-3.165894E-05
 -0.113922	-3.127441E-05
 -0.118927	-3.083496E-05
 -0.123962	-3.053589E-05
 -0.128967	-3.019104E-05
 -0.133972	-2.986450E-05
 -0.139008	-2.953796E-05
 -0.144012	-2.923584E-05
 -0.149048	-2.893372E-05
 -0.154053	-2.864990E-05
 -0.159058	-2.836304E-05
 -0.164093	-2.810364E-05
 -0.169098	-2.784729E-05
 -0.174103	-2.760010E-05
 -0.179138	-2.736206E-05
 -0.184143	-2.712402E-05
 -0.189178	-2.700195E-05
 -0.194183	-2.668762E-05
 -0.199219	-2.642517E-05
 -0.204224	-2.628174E-05
 -0.209229	-2.609863E-05
 -0.214264	-2.588196E-05
 -0.219269	-2.573853E-05
 -0.224274	-2.667847E-05
 -0.229309	-2.372742E-05
 -0.234314	-2.501831E-05
 -0.239319	-2.500916E-05
 -0.244354	-2.492065E-05
 -0.249359	-2.479553E-05
 -0.254364	-2.467651E-05
 -0.259399	-2.456665E-05
 -0.264404	-2.445984E-05
 -0.269409	-2.434998E-05
 -0.274445	-2.425842E-05
 -0.279449	-2.419128E-05
 -0.284454	-2.410583E-05
 -0.289490	-2.404480E-05
 -0.294495	-2.398376E-05
 -0.297821	-2.331543E-05
 -0.292847	-1.654968E-05
 -0.287872	-1.620789E-05
 -0.282898	-1.594238E-05
 -0.277924	-1.571655E-05
 -0.272949	-1.556396E-05
 -0.267975	-1.532288E-05
 -0.263031	-1.515503E-05
 -0.258057	-1.499023E-05
 -0.253082	-1.483765E-05
 -0.248108	-1.468811E-05
 -0.243134	-1.456604E-05
 -0.238159	-1.441650E-05
 -0.233185	-1.430054E-05
 -0.228210	-1.419373E-05
 -0.223236	-1.406250E-05
 -0.218262	-1.396484E-05
 -0.213287	-1.385803E-05
 -0.208344	-1.375732E-05
 -0.203369	-1.366272E-05
 -0.198395	-1.358032E-05
 -0.193420	-1.347961E-05
 -0.188446	-1.339111E-05
 -0.183472	-1.331482E-05
 -0.178497	-1.322021E-05
 -0.173523	-1.313477E-05
 -0.168579	-1.306458E-05
 -0.163605	-1.298828E-05
 -0.158630	-1.291809E-05
 -0.153656	-1.284180E-05
 -0.148682	-1.276245E-05
 -0.143707	-1.270752E-05
 -0.138733	-1.263733E-05
 -0.133759	-1.257629E-05
 -0.128815	-1.253052E-05
 -0.123840	-1.244507E-05
 -0.118866	-1.239319E-05
 -0.113892	-1.233215E-05
 -0.108917	-1.227417E-05
 -0.103943	-1.222229E-05
 -0.098999	-1.215210E-05
 -0.094025	-1.209106E-05
 -0.089050	-1.204834E-05
 -0.084076	-1.198425E-05
 -0.079102	-1.195374E-05
 -0.074158	-1.186218E-05
 -0.069183	-1.180420E-05
 -0.064209	-1.174622E-05
 -0.059235	-1.169434E-05
 -0.054260	-1.162109E-05
 -0.049344	-1.155090E-05
 -0.044370	-1.147766E-05
 -0.039398	-1.140747E-05
 -0.034427	-1.132202E-05
 -0.029456	-1.123657E-05
 -0.024484	-1.114807E-05
 -0.019513	-1.105957E-05
 -0.014539	-1.093140E-05
 -0.009567	-1.080322E-05
 -0.004581	-1.063843E-05

 Potential	  Scan 5   
 0.000375	-1.050110E-05
 0.005347	-1.031799E-05
 0.010315	-1.010742E-05
 0.015289	-9.854126E-06
 0.020261	-9.573364E-06
 0.025232	-9.262085E-06
 0.030203	-8.889771E-06
 0.035172	-8.450317E-06
 0.040143	-7.943726E-06
 0.045111	-7.345581E-06
 0.050079	-6.643677E-06
 0.055054	-5.838013E-06
 0.060028	-4.879761E-06
 0.065002	-3.779297E-06
 0.069977	-2.474670E-06
 0.074951	-9.716797E-07
 0.079895	7.684326E-07
 0.084869	2.770081E-06
 0.089844	5.145264E-06
 0.094818	7.742310E-06
 0.099792	1.066589E-05
 0.104736	1.391602E-05
 0.109711	1.751709E-05
 0.114685	2.149963E-05
 0.119629	2.575684E-05
 0.124603	3.038940E-05
 0.129578	3.515015E-05
 0.134521	4.025879E-05
 0.139496	4.555664E-05
 0.144470	5.099487E-05
 0.149445	5.648804E-05
 0.154388	6.198120E-05
 0.159363	6.741333E-05
 0.164337	7.257080E-05
 0.169312	7.751465E-05
 0.174255	8.206177E-05
 0.179230	8.615112E-05
 0.184204	8.963013E-05
 0.189178	9.249878E-05
 0.194153	9.460449E-05
 0.199127	9.594727E-05
 0.204071	9.652710E-05
 0.209045	9.631348E-05
 0.214020	9.533691E-05
 0.218994	9.375000E-05
 0.223938	9.161377E-05
 0.228912	8.905029E-05
 0.233887	8.627319E-05
 0.238861	8.328247E-05
 0.243805	8.026123E-05
 0.248779	7.730103E-05
 0.253754	7.440186E-05
 0.258698	7.162476E-05
 0.263672	6.900024E-05
 0.268646	6.652832E-05
 0.273590	6.420898E-05
 0.278564	6.204224E-05
 0.283539	6.002808E-05
 0.288513	5.816650E-05
 0.293457	5.639648E-05
 0.298431	5.477905E-05
 0.303406	5.325317E-05
 0.308350	5.181885E-05
 0.313324	5.050659E-05
 0.318298	4.928284E-05
 0.323273	4.810791E-05
 0.328247	4.699707E-05
 0.333191	4.596252E-05
 0.338165	4.497681E-05
 0.343140	4.403992E-05
 0.348114	4.315796E-05
 0.353058	4.231262E-05
 0.358032	4.152222E-05
 0.363007	4.074707E-05
 0.367981	4.002380E-05
 0.372955	3.932495E-05
 0.377899	3.866577E-05
 0.382874	3.802795E-05
 0.387848	3.741455E-05
 0.392792	3.682556E-05
 0.397766	3.626099E-05
 0.402740	3.571167E-05
 0.407684	3.518066E-05
 0.412659	3.466797E-05
 0.417633	3.417664E-05
 0.422607	3.369751E-05
 0.427551	3.322754E-05
 0.432526	3.277283E-05
 0.437500	3.233337E-05
 0.442474	3.190308E-05
 0.447418	3.148499E-05
 0.452393	3.108521E-05
 0.457367	3.068848E-05
 0.462311	3.029785E-05
 0.467285	2.992249E-05
 0.472260	2.955627E-05
 0.477203	2.919312E-05
 0.482178	2.884216E-05
 0.487122	2.849426E-05
 0.492096	2.815552E-05
 0.497070	2.782898E-05
 0.499054	2.595215E-05
 0.494019	2.329712E-05
 0.488983	2.235107E-05
 0.483978	2.167358E-05
 0.478943	2.110901E-05
 0.473907	2.061462E-05
 0.468903	2.016907E-05
 0.463867	1.974792E-05
 0.458862	1.935425E-05
 0.453827	1.897888E-05
 0.448792	1.862488E-05
 0.443787	1.828613E-05
 0.438751	1.795349E-05
 0.433716	1.763306E-05
 0.428711	1.732178E-05
 0.423676	1.701355E-05
 0.418671	1.671753E-05
 0.413635	1.642151E-05
 0.408600	1.614075E-05
 0.403595	1.585388E-05
 0.398560	1.557922E-05
 0.393555	1.529846E-05
 0.388519	1.502991E-05
 0.383514	1.475830E-05
 0.378479	1.448975E-05
 0.373474	1.421509E-05
 0.368439	1.395264E-05
 0.363403	1.368103E-05
 0.358398	1.341858E-05
 0.353363	1.314697E-05
 0.348358	1.287537E-05
 0.343323	1.259766E-05
 0.338287	1.232300E-05
 0.333282	1.203918E-05
 0.328247	1.174622E-05
 0.323242	1.145630E-05
 0.318207	1.112976E-05
 0.313202	1.079102E-05
 0.308167	1.043396E-05
 0.303131	1.006165E-05
 0.298126	9.643555E-06
 0.293091	9.213257E-06
 0.288086	8.737183E-06
 0.283051	8.200073E-06
 0.278046	7.614136E-06
 0.273010	6.961060E-06
 0.268005	6.216431E-06
 0.263000	5.383301E-06
 0.257965	4.448853E-06
 0.252960	3.240051E-06
 0.247925	1.942139E-06
 0.242889	5.548096E-07
 0.237885	-1.017151E-06
 0.232880	-2.802429E-06
 0.227844	-4.809570E-06
 0.222839	-7.156372E-06
 0.217804	-9.786987E-06
 0.212799	-1.273499E-05
 0.207764	-1.596375E-05
 0.202759	-1.955872E-05
 0.197723	-2.348328E-05
 0.192719	-2.770691E-05
 0.187683	-3.219604E-05
 0.182678	-3.701172E-05
 0.177643	-4.199524E-05
 0.172638	-4.718323E-05
 0.167603	-5.245972E-05
 0.162598	-5.776978E-05
 0.157562	-6.304932E-05
 0.152557	-6.817627E-05
 0.147522	-7.312012E-05
 0.142517	-7.769775E-05
 0.137482	-8.187866E-05
 0.132477	-8.554077E-05
 0.127441	-8.856201E-05
 0.122437	-9.094238E-05
 0.117401	-9.249878E-05
 0.112396	-9.329224E-05
 0.107361	-9.326172E-05
 0.102356	-9.246826E-05
 0.097321	-9.097290E-05
 0.092316	-8.889771E-05
 0.087280	-8.639526E-05
 0.082275	-8.355713E-05
 0.077271	-8.056641E-05
 0.072235	-7.748413E-05
 0.067230	-7.443237E-05
 0.062195	-7.150269E-05
 0.057159	-6.866455E-05
 0.052155	-6.600952E-05
 0.047125	-6.353760E-05
 0.042108	-6.115723E-05
 0.037088	-5.899048E-05
 0.032071	-5.697632E-05
 0.027048	-5.508423E-05
 0.022034	-5.334473E-05
 0.017014	-5.172729E-05
 0.011993	-5.020142E-05
 0.006992	-4.873657E-05
 0.001959	-4.747314E-05
 -0.003049	-4.626770E-05
 -0.008075	-4.512634E-05
 -0.013095	-4.405212E-05
 -0.018112	-4.305115E-05
 -0.023135	-4.211121E-05
 -0.028156	-4.120789E-05
 -0.033173	-4.037476E-05
 -0.038190	-3.957825E-05
 -0.043207	-3.881836E-05
 -0.048227	-3.809204E-05
 -0.053192	-3.744507E-05
 -0.058197	-3.679199E-05
 -0.063232	-3.619080E-05
 -0.068268	-3.560181E-05
 -0.073273	-3.504639E-05
 -0.078278	-3.452454E-05
 -0.083313	-3.404846E-05
 -0.088318	-3.352661E-05
 -0.093323	-3.308105E-05
 -0.098358	-3.262024E-05
 -0.103363	-3.219604E-05
 -0.108398	-3.177490E-05
 -0.113403	-3.138428E-05
 -0.118408	-3.102112E-05
 -0.123444	-3.068237E-05
 -0.128448	-3.030396E-05
 -0.133484	-2.996826E-05
 -0.138489	-2.965698E-05
 -0.143494	-2.933960E-05
 -0.148529	-2.903442E-05
 -0.153534	-2.875061E-05
 -0.158539	-2.848816E-05
 -0.163574	-2.819519E-05
 -0.168579	-2.792969E-05
 -0.173584	-2.769470E-05
 -0.178619	-2.743835E-05
 -0.183624	-2.720337E-05
 -0.188660	-2.723083E-05
 -0.193665	-2.676697E-05
 -0.198700	-2.657166E-05
 -0.203705	-2.636108E-05
 -0.208710	-2.614746E-05
 -0.213745	-2.596741E-05
 -0.218750	-2.578430E-05
 -0.223755	-2.561035E-05
 -0.228760	-2.543945E-05
 -0.233795	-2.527771E-05
 -0.238800	-2.513428E-05
 -0.243805	-2.501526E-05
 -0.248840	-2.486572E-05
 -0.253845	-2.473450E-05
 -0.258850	-2.461853E-05
 -0.263885	-2.449951E-05
 -0.268890	-2.438660E-05
 -0.273895	-2.431030E-05
 -0.278931	-2.420044E-05
 -0.283936	-2.413635E-05
 -0.288971	-2.407532E-05
 -0.293976	-2.399292E-05
 -0.297241	-2.319031E-05
 -0.292267	-1.655579E-05
 -0.287292	-1.621094E-05
 -0.282318	-1.596069E-05
 -0.277344	-1.574402E-05
 -0.272369	-1.552124E-05
 -0.267395	-1.535339E-05
 -0.262421	-1.518555E-05
 -0.257446	-1.502380E-05
 -0.252472	-1.487427E-05
 -0.247498	-1.472778E-05
 -0.242523	-1.459351E-05
 -0.237549	-1.446838E-05
 -0.232574	-1.434631E-05
 -0.227600	-1.422424E-05
 -0.222656	-1.411133E-05
 -0.217682	-1.400757E-05
 -0.212708	-1.390076E-05
 -0.207733	-1.380005E-05
 -0.202759	-1.369934E-05
 -0.197784	-1.360474E-05
 -0.192810	-1.351624E-05
 -0.187836	-1.342773E-05
 -0.182861	-1.334229E-05
 -0.177917	-1.327515E-05
 -0.172943	-1.316528E-05
 -0.167969	-1.309509E-05
 -0.162994	-1.301575E-05
 -0.158020	-1.293030E-05
 -0.153046	-1.286621E-05
 -0.148102	-1.278687E-05
 -0.143127	-1.272278E-05
 -0.138153	-1.266174E-05
 -0.133179	-1.261292E-05
 -0.128204	-1.253052E-05
 -0.123230	-1.247559E-05
 -0.118256	-1.240845E-05
 -0.113312	-1.235046E-05
 -0.108337	-1.229553E-05
 -0.103363	-1.223145E-05
 -0.098389	-1.217041E-05
 -0.093445	-1.211243E-05
 -0.088470	-1.205139E-05
 -0.083496	-1.199951E-05
 -0.078522	-1.195068E-05
 -0.073547	-1.188049E-05
 -0.068604	-1.180725E-05
 -0.063629	-1.174622E-05
 -0.058655	-1.169128E-05
 -0.053680	-1.161499E-05
 -0.048767	-1.154480E-05
 -0.043799	-1.147461E-05
 -0.038831	-1.138916E-05
 -0.033862	-1.131592E-05
 -0.028891	-1.122131E-05
 -0.023923	-1.112366E-05
 -0.018951	-1.100769E-05
 -0.013980	-1.090393E-05
 -0.009009	-1.075745E-05
 -0.004022	-1.059265E-05
