Date: 15-08-25
Time: 14:25:56 PM

Exp. Conditions:
Cyclic voltammetry
Start potential (V) = .0000
First vertex potential (V) = .5000
Second vertex potential (V) = -.3000
Step potential (V) = .00500
Scan rate (V/s) = .05000
Equilibration time (s) = 
Number of Data Points =  320 

 Potential	  Scan 1   
 0.001733	-1.291504E-05
 0.008688	-1.209106E-05
 0.013644	-1.186523E-05
 0.018600	-1.163330E-05
 0.023550	-1.138306E-05
 0.028513	-1.111145E-05
 0.033466	-1.080017E-05
 0.038425	-1.045532E-05
 0.043381	-1.004639E-05
 0.048337	-9.585571E-06
 0.053314	-9.045410E-06
 0.058258	-8.413696E-06
 0.063232	-7.678223E-06
 0.068176	-6.817627E-06
 0.073120	-5.819702E-06
 0.078064	-4.635620E-06
 0.083038	-3.249817E-06
 0.087982	-1.621094E-06
 0.092926	2.600098E-07
 0.097870	2.463379E-06
 0.102844	5.001831E-06
 0.107788	7.885742E-06
 0.112732	1.120300E-05
 0.117706	1.490784E-05
 0.122650	1.902771E-05
 0.127594	2.359009E-05
 0.132538	2.858582E-05
 0.137512	3.395691E-05
 0.142456	3.967896E-05
 0.147400	4.570618E-05
 0.152344	5.191040E-05
 0.157318	5.825806E-05
 0.162262	6.460571E-05
 0.167206	7.083130E-05
 0.172150	7.684326E-05
 0.177124	8.248901E-05
 0.182068	8.761597E-05
 0.187012	9.216309E-05
 0.191986	9.588623E-05
 0.196930	9.884644E-05
 0.201874	1.008606E-04
 0.206818	1.019897E-04
 0.211761	1.022034E-04
 0.216736	1.015625E-04
 0.221680	1.001892E-04
 0.226624	9.817505E-05
 0.231598	9.564209E-05
 0.236542	9.286499E-05
 0.241486	8.981323E-05
 0.246460	8.670044E-05
 0.251404	8.352661E-05
 0.256348	8.041382E-05
 0.261292	7.742310E-05
 0.266266	7.461548E-05
 0.271210	7.189941E-05
 0.276154	6.936646E-05
 0.281128	6.698608E-05
 0.286072	6.478882E-05
 0.291016	6.271362E-05
 0.295959	6.076050E-05
 0.300903	5.899048E-05
 0.305878	5.731201E-05
 0.310822	5.572510E-05
 0.315765	5.426025E-05
 0.320740	5.288696E-05
 0.325684	5.160522E-05
 0.330627	5.041504E-05
 0.335571	4.929504E-05
 0.340546	4.822693E-05
 0.345490	4.720764E-05
 0.350433	4.625549E-05
 0.355377	4.533997E-05
 0.360321	4.447327E-05
 0.365295	4.364319E-05
 0.370239	4.287415E-05
 0.375183	4.211731E-05
 0.380157	4.140015E-05
 0.385101	4.071045E-05
 0.390045	4.005432E-05
 0.395020	3.941956E-05
 0.399963	3.879700E-05
 0.404907	3.820801E-05
 0.409851	3.763733E-05
 0.414795	3.709717E-05
 0.419769	3.655701E-05
 0.424713	3.603821E-05
 0.429657	3.553162E-05
 0.434631	3.503418E-05
 0.439575	3.455200E-05
 0.444550	3.408813E-05
 0.449493	3.363037E-05
 0.454437	3.318481E-05
 0.459381	3.274231E-05
 0.464325	3.231506E-05
 0.469299	3.190002E-05
 0.474243	3.148193E-05
 0.479187	3.107910E-05
 0.484161	3.068848E-05
 0.489105	3.029480E-05
 0.494049	2.990723E-05
 0.498993	2.953796E-05
 0.500793	2.713013E-05
 0.495270	2.497559E-05
 0.490234	2.397766E-05
 0.485199	2.322998E-05
 0.480164	2.260132E-05
 0.475128	2.204285E-05
 0.470062	2.154236E-05
 0.465027	2.106323E-05
 0.459991	2.061768E-05
 0.454956	2.019043E-05
 0.449921	1.979065E-05
 0.444885	1.940002E-05
 0.439850	1.901550E-05
 0.434814	1.865234E-05
 0.429779	1.829834E-05
 0.424744	1.794128E-05
 0.419708	1.760254E-05
 0.414673	1.725464E-05
 0.409637	1.692200E-05
 0.404602	1.659546E-05
 0.399567	1.627502E-05
 0.394531	1.595154E-05
 0.389496	1.563416E-05
 0.384460	1.530457E-05
 0.379425	1.499939E-05
 0.374390	1.467590E-05
 0.369354	1.435547E-05
 0.364319	1.404419E-05
 0.359283	1.372375E-05
 0.354248	1.339722E-05
 0.349213	1.307068E-05
 0.344177	1.273804E-05
 0.339142	1.238708E-05
 0.334137	1.203003E-05
 0.329102	1.166992E-05
 0.324066	1.129456E-05
 0.319031	1.088257E-05
 0.313995	1.047974E-05
 0.308960	1.001892E-05
 0.303925	9.512329E-06
 0.298889	8.975220E-06
 0.293854	8.422852E-06
 0.288849	7.772827E-06
 0.283813	7.009888E-06
 0.278778	6.210327E-06
 0.273743	5.303955E-06
 0.268707	4.260864E-06
 0.263672	3.046265E-06
 0.258636	1.660461E-06
 0.253601	1.260376E-07
 0.248566	-1.666260E-06
 0.243530	-3.728027E-06
 0.238525	-6.005859E-06
 0.233490	-8.670044E-06
 0.228455	-1.172180E-05
 0.223419	-1.510315E-05
 0.218384	-1.892090E-05
 0.213348	-2.312012E-05
 0.208344	-2.772217E-05
 0.203308	-3.273010E-05
 0.198273	-3.812561E-05
 0.193237	-4.383240E-05
 0.188202	-4.968262E-05
 0.183167	-5.578613E-05
 0.178131	-6.185913E-05
 0.173096	-6.790161E-05
 0.168060	-7.379150E-05
 0.163055	-7.934570E-05
 0.158020	-8.444214E-05
 0.152985	-8.898926E-05
 0.147949	-9.277344E-05
 0.142914	-9.573364E-05
 0.137878	-9.777832E-05
 0.132843	-9.890747E-05
 0.127838	-9.912109E-05
 0.122803	-9.841919E-05
 0.117767	-9.692383E-05
 0.112732	-9.475708E-05
 0.107697	-9.210205E-05
 0.102661	-8.914185E-05
 0.097656	-8.596802E-05
 0.092621	-8.270264E-05
 0.087585	-7.946777E-05
 0.082581	-7.632446E-05
 0.077545	-7.330322E-05
 0.072510	-7.040405E-05
 0.067474	-6.768799E-05
 0.062439	-6.515503E-05
 0.057404	-6.280518E-05
 0.052399	-6.057739E-05
 0.047348	-5.850220E-05
 0.042319	-5.661011E-05
 0.037289	-5.480957E-05
 0.032257	-5.316162E-05
 0.027228	-5.160522E-05
 0.022195	-5.017090E-05
 0.017163	-4.880066E-05
 0.012131	-4.754028E-05
 0.007120	-4.631653E-05
 0.002069	-4.525757E-05
 -0.002960	-4.421082E-05
 -0.008002	-4.323120E-05
 -0.013037	-4.231873E-05
 -0.018063	-4.143982E-05
 -0.023096	-4.061890E-05
 -0.028125	-3.983765E-05
 -0.033154	-3.910217E-05
 -0.038184	-3.840637E-05
 -0.043213	-3.773193E-05
 -0.048242	-3.711243E-05
 -0.053223	-3.651428E-05
 -0.058258	-3.594360E-05
 -0.063293	-3.539734E-05
 -0.068329	-3.487854E-05
 -0.073334	-3.438110E-05
 -0.078369	-3.389587E-05
 -0.083405	-3.344727E-05
 -0.088409	-3.300781E-05
 -0.093445	-3.258667E-05
 -0.098480	-3.218689E-05
 -0.103516	-3.179321E-05
 -0.108551	-3.141785E-05
 -0.113556	-3.106384E-05
 -0.118591	-3.071899E-05
 -0.123627	-3.038025E-05
 -0.128662	-3.006287E-05
 -0.133667	-2.975464E-05
 -0.138702	-2.945251E-05
 -0.143738	-2.915955E-05
 -0.148773	-2.888184E-05
 -0.153778	-2.861328E-05
 -0.158813	-2.835388E-05
 -0.163849	-2.811890E-05
 -0.168884	-2.785034E-05
 -0.173889	-2.763062E-05
 -0.178925	-2.739868E-05
 -0.183960	-2.717285E-05
 -0.188995	-2.696533E-05
 -0.194031	-2.676697E-05
 -0.199036	-2.656250E-05
 -0.204071	-2.637024E-05
 -0.209106	-2.618713E-05
 -0.214111	-2.600403E-05
 -0.219147	-2.583313E-05
 -0.224182	-2.566223E-05
 -0.229187	-2.550659E-05
 -0.234222	-2.535400E-05
 -0.239258	-2.521362E-05
 -0.244263	-2.507324E-05
 -0.249298	-2.494507E-05
 -0.254333	-2.483215E-05
 -0.259369	-2.470703E-05
 -0.264404	-2.460022E-05
 -0.269409	-2.448730E-05
 -0.274445	-2.438660E-05
 -0.279480	-2.429199E-05
 -0.284485	-2.420044E-05
 -0.289520	-2.413025E-05
 -0.294525	-2.404480E-05
 -0.296783	-1.988220E-05
 -0.291840	-1.664734E-05
 -0.286865	-1.636047E-05
 -0.281891	-1.613464E-05
 -0.276947	-1.592712E-05
 -0.271973	-1.574707E-05
 -0.266998	-1.559753E-05
 -0.262054	-1.543579E-05
 -0.257080	-1.528625E-05
 -0.252106	-1.514587E-05
 -0.247131	-1.500854E-05
 -0.242188	-1.489563E-05
 -0.237213	-1.477051E-05
 -0.232269	-1.466064E-05
 -0.227295	-1.454468E-05
 -0.222321	-1.445007E-05
 -0.217377	-1.434937E-05
 -0.212402	-1.424561E-05
 -0.207458	-1.415405E-05
 -0.202484	-1.406555E-05
 -0.197510	-1.397400E-05
 -0.192566	-1.390076E-05
 -0.187592	-1.380615E-05
 -0.182617	-1.372986E-05
 -0.177673	-1.365967E-05
 -0.172699	-1.358337E-05
 -0.167755	-1.350708E-05
 -0.162781	-1.343079E-05
 -0.157806	-1.336975E-05
 -0.152863	-1.329651E-05
 -0.147888	-1.323242E-05
 -0.142944	-1.315918E-05
 -0.137970	-1.310425E-05
 -0.133026	-1.304016E-05
 -0.128052	-1.298523E-05
 -0.123108	-1.293030E-05
 -0.118134	-1.286621E-05
 -0.113159	-1.280823E-05
 -0.108215	-1.275635E-05
 -0.103241	-1.270142E-05
 -0.098297	-1.265564E-05
 -0.093323	-1.259460E-05
 -0.088379	-1.254883E-05
 -0.083405	-1.249695E-05
 -0.078461	-1.245728E-05
 -0.073486	-1.239929E-05
 -0.068542	-1.234741E-05
 -0.063568	-1.228943E-05
 -0.058594	-1.224060E-05
 -0.053650	-1.218872E-05
 -0.048730	-1.212769E-05
 -0.043768	-1.206665E-05
 -0.038806	-1.199951E-05
 -0.033844	-1.194153E-05
 -0.028882	-1.186829E-05
 -0.023920	-1.178589E-05
 -0.018954	-1.170349E-05
 -0.013995	-1.161804E-05
 -0.009030	-1.152039E-05
 -0.004056	-1.136780E-05

 Potential	  Scan 2   
 0.000891	-1.127625E-05
 0.005869	-1.114197E-05
 0.010815	-1.098328E-05
 0.015781	-1.080322E-05
 0.020743	-1.059265E-05
 0.025705	-1.035767E-05
 0.030667	-1.006775E-05
 0.035632	-9.759521E-06
 0.040598	-9.384155E-06
 0.045557	-8.953857E-06
 0.050537	-8.435059E-06
 0.055481	-7.849121E-06
 0.060455	-7.138062E-06
 0.065430	-6.298828E-06
 0.070374	-5.322266E-06
 0.075348	-4.182434E-06
 0.080322	-2.826538E-06
 0.085266	-1.237793E-06
 0.090240	6.076050E-07
 0.095184	2.752686E-06
 0.100159	5.249023E-06
 0.105103	8.074951E-06
 0.110077	1.132507E-05
 0.115051	1.497803E-05
 0.119995	1.903687E-05
 0.124969	2.358398E-05
 0.129913	2.850342E-05
 0.134888	3.385620E-05
 0.139862	3.955383E-05
 0.144806	4.554443E-05
 0.149750	5.172729E-05
 0.154724	5.810547E-05
 0.159668	6.445313E-05
 0.164642	7.073975E-05
 0.169617	7.681274E-05
 0.174561	8.251953E-05
 0.179504	8.773804E-05
 0.184479	9.234619E-05
 0.189453	9.625244E-05
 0.194397	9.927368E-05
 0.199371	1.014404E-04
 0.204315	1.026917E-04
 0.209290	1.030273E-04
 0.214233	1.024780E-04
 0.219208	1.011658E-04
 0.224152	9.924316E-05
 0.229126	9.680176E-05
 0.234070	9.396362E-05
 0.239044	9.097290E-05
 0.243988	8.779907E-05
 0.248962	8.462524E-05
 0.253906	8.151245E-05
 0.258881	7.849121E-05
 0.263824	7.562256E-05
 0.268799	7.287598E-05
 0.273743	7.031250E-05
 0.278717	6.787109E-05
 0.283661	6.561279E-05
 0.288635	6.350708E-05
 0.293579	6.152344E-05
 0.298523	5.966187E-05
 0.303497	5.795288E-05
 0.308441	5.633545E-05
 0.313416	5.484009E-05
 0.318390	5.340576E-05
 0.323334	5.209351E-05
 0.328308	5.084229E-05
 0.333252	4.965210E-05
 0.338226	4.856262E-05
 0.343170	4.751587E-05
 0.348145	4.652100E-05
 0.353088	4.557495E-05
 0.358063	4.467163E-05
 0.363007	4.379578E-05
 0.367950	4.300232E-05
 0.372925	4.221497E-05
 0.377899	4.146118E-05
 0.382843	4.075012E-05
 0.387817	4.006653E-05
 0.392761	3.939819E-05
 0.397736	3.876038E-05
 0.402679	3.815002E-05
 0.407623	3.755188E-05
 0.412598	3.698730E-05
 0.417542	3.643494E-05
 0.422516	3.589783E-05
 0.427460	3.537598E-05
 0.432404	3.486938E-05
 0.437378	3.438110E-05
 0.442352	3.390503E-05
 0.447296	3.343811E-05
 0.452271	3.298645E-05
 0.457214	3.254089E-05
 0.462189	3.211365E-05
 0.467133	3.169250E-05
 0.472107	3.128357E-05
 0.477051	3.088684E-05
 0.482025	3.049316E-05
 0.486969	3.011169E-05
 0.491943	2.973633E-05
 0.496887	2.937317E-05
 0.498840	2.742310E-05
 0.493805	2.498474E-05
 0.488800	2.402039E-05
 0.483765	2.330322E-05
 0.478729	2.270508E-05
 0.473694	2.216797E-05
 0.468658	2.167969E-05
 0.463623	2.121887E-05
 0.458618	2.079163E-05
 0.453583	2.037964E-05
 0.448547	1.998291E-05
 0.443512	1.960144E-05
 0.438507	1.923218E-05
 0.433472	1.886597E-05
 0.428436	1.851501E-05
 0.423401	1.817322E-05
 0.418396	1.782532E-05
 0.413361	1.749573E-05
 0.408325	1.716614E-05
 0.403290	1.683960E-05
 0.398285	1.651306E-05
 0.393250	1.619263E-05
 0.388214	1.587830E-05
 0.383179	1.555786E-05
 0.378174	1.524353E-05
 0.373138	1.492920E-05
 0.368103	1.460876E-05
 0.363098	1.428833E-05
 0.358063	1.396790E-05
 0.353027	1.364441E-05
 0.348022	1.331177E-05
 0.342987	1.296997E-05
 0.337952	1.262817E-05
 0.332947	1.228638E-05
 0.327911	1.191101E-05
 0.322876	1.152344E-05
 0.317871	1.112671E-05
 0.312836	1.069641E-05
 0.307800	1.024475E-05
 0.302765	9.744263E-06
 0.297760	9.219360E-06
 0.292725	8.630371E-06
 0.287689	7.980347E-06
 0.282684	7.263184E-06
 0.277649	6.454468E-06
 0.272614	5.545044E-06
 0.267609	4.515686E-06
 0.262573	3.322449E-06
 0.257538	1.977844E-06
 0.252533	4.272461E-07
 0.247498	-1.325378E-06
 0.242462	-3.341675E-06
 0.237457	-5.578613E-06
 0.232422	-8.206177E-06
 0.227386	-1.117249E-05
 0.222382	-1.452026E-05
 0.217346	-1.827698E-05
 0.212311	-2.241516E-05
 0.207306	-2.695313E-05
 0.202271	-3.189087E-05
 0.197235	-3.722839E-05
 0.192230	-4.284058E-05
 0.187195	-4.871216E-05
 0.182159	-5.474854E-05
 0.177155	-6.085205E-05
 0.172119	-6.692505E-05
 0.167114	-7.284546E-05
 0.162079	-7.846069E-05
 0.157043	-8.361816E-05
 0.152039	-8.825684E-05
 0.147003	-9.216309E-05
 0.141998	-9.527588E-05
 0.136963	-9.750366E-05
 0.131927	-9.881592E-05
 0.126923	-9.918213E-05
 0.121887	-9.863281E-05
 0.116852	-9.722900E-05
 0.111847	-9.518433E-05
 0.106812	-9.259033E-05
 0.101776	-8.966064E-05
 0.096771	-8.654785E-05
 0.091736	-8.328247E-05
 0.086700	-8.004761E-05
 0.081696	-7.687378E-05
 0.076660	-7.385254E-05
 0.071655	-7.095337E-05
 0.066620	-6.817627E-05
 0.061584	-6.561279E-05
 0.056549	-6.323242E-05
 0.051544	-6.100464E-05
 0.046506	-5.889893E-05
 0.041479	-5.697632E-05
 0.036456	-5.517578E-05
 0.031427	-5.349731E-05
 0.026401	-5.194092E-05
 0.021371	-5.047607E-05
 0.016348	-4.908142E-05
 0.011325	-4.779968E-05
 0.006314	-4.660339E-05
 0.001270	-4.549255E-05
 -0.003741	-4.442749E-05
 -0.008780	-4.345093E-05
 -0.013806	-4.251099E-05
 -0.018829	-4.162903E-05
 -0.023856	-4.079895E-05
 -0.028882	-4.002075E-05
 -0.033905	-3.927002E-05
 -0.038928	-3.855896E-05
 -0.043951	-3.788147E-05
 -0.048978	-3.725281E-05
 -0.053955	-3.664551E-05
 -0.058960	-3.606262E-05
 -0.063995	-3.551025E-05
 -0.069031	-3.498535E-05
 -0.074036	-3.447876E-05
 -0.079071	-3.399658E-05
 -0.084076	-3.353271E-05
 -0.089111	-3.309326E-05
 -0.094116	-3.266296E-05
 -0.099152	-3.225708E-05
 -0.104156	-3.185730E-05
 -0.109192	-3.147888E-05
 -0.114227	-3.112183E-05
 -0.119232	-3.076477E-05
 -0.124268	-3.043213E-05
 -0.129272	-3.010254E-05
 -0.134308	-2.978821E-05
 -0.139313	-2.948608E-05
 -0.144348	-2.920532E-05
 -0.149353	-2.890930E-05
 -0.154388	-2.863464E-05
 -0.159393	-2.836914E-05
 -0.164429	-2.811890E-05
 -0.169464	-2.787476E-05
 -0.174469	-2.764587E-05
 -0.179504	-2.741394E-05
 -0.184509	-2.718811E-05
 -0.189545	-2.697449E-05
 -0.194580	-2.676392E-05
 -0.199585	-2.656555E-05
 -0.204590	-2.636414E-05
 -0.209625	-2.618713E-05
 -0.214630	-2.599792E-05
 -0.219666	-2.582397E-05
 -0.224670	-2.565002E-05
 -0.229706	-2.546387E-05
 -0.234711	-2.532043E-05
 -0.239746	-2.518311E-05
 -0.244751	-2.504883E-05
 -0.249786	-2.492676E-05
 -0.254791	-2.480469E-05
 -0.259827	-2.467957E-05
 -0.264832	-2.456055E-05
 -0.269867	-2.444458E-05
 -0.274872	-2.434692E-05
 -0.279907	-2.424316E-05
 -0.284912	-2.415466E-05
 -0.289948	-2.406921E-05
 -0.294952	-2.395935E-05
 -0.297058	-1.929321E-05
 -0.292084	-1.661987E-05
 -0.287109	-1.633301E-05
 -0.282135	-1.611328E-05
 -0.277161	-1.592102E-05
 -0.272217	-1.575012E-05
 -0.267242	-1.558228E-05
 -0.262268	-1.543579E-05
 -0.257294	-1.528931E-05
 -0.252319	-1.515503E-05
 -0.247345	-1.502991E-05
 -0.242371	-1.490784E-05
 -0.237396	-1.477966E-05
 -0.232452	-1.467285E-05
 -0.227478	-1.455688E-05
 -0.222504	-1.446228E-05
 -0.217529	-1.435242E-05
 -0.212555	-1.425476E-05
 -0.207611	-1.417236E-05
 -0.202637	-1.407471E-05
 -0.197662	-1.398926E-05
 -0.192688	-1.389465E-05
 -0.187714	-1.381836E-05
 -0.182739	-1.374817E-05
 -0.177765	-1.366272E-05
 -0.172791	-1.358337E-05
 -0.167847	-1.351624E-05
 -0.162872	-1.344910E-05
 -0.157898	-1.337585E-05
 -0.152954	-1.330566E-05
 -0.147980	-1.323547E-05
 -0.143005	-1.316528E-05
 -0.138031	-1.310425E-05
 -0.133057	-1.304321E-05
 -0.128113	-1.298218E-05
 -0.123138	-1.293335E-05
 -0.118164	-1.286316E-05
 -0.113190	-1.281433E-05
 -0.108246	-1.276245E-05
 -0.103271	-1.270447E-05
 -0.098297	-1.264648E-05
 -0.093323	-1.259460E-05
 -0.088348	-1.254272E-05
 -0.083405	-1.249695E-05
 -0.078430	-1.244507E-05
 -0.073456	-1.238708E-05
 -0.068512	-1.233215E-05
 -0.063538	-1.227722E-05
 -0.058563	-1.222229E-05
 -0.053589	-1.217041E-05
 -0.048672	-1.210632E-05
 -0.043701	-1.204224E-05
 -0.038733	-1.198120E-05
 -0.033765	-1.190796E-05
 -0.028793	-1.182861E-05
 -0.023825	-1.175232E-05
 -0.018851	-1.165466E-05
 -0.013885	-1.156616E-05
 -0.008914	-1.145630E-05
 -0.003931	-1.130371E-05

 Potential	  Scan 3   
 0.001025	-1.120911E-05
 0.006009	-1.105652E-05
 0.010965	-1.088562E-05
 0.015933	-1.068115E-05
 0.020905	-1.045837E-05
 0.025879	-1.019287E-05
 0.030844	-9.896851E-06
 0.035812	-9.552002E-06
 0.040781	-9.149170E-06
 0.045749	-8.666992E-06
 0.050720	-8.105469E-06
 0.055695	-7.446289E-06
 0.060669	-6.674194E-06
 0.065643	-5.770874E-06
 0.070618	-4.699707E-06
 0.075562	-3.438416E-06
 0.080536	-1.968994E-06
 0.085510	-2.325439E-07
 0.090454	1.766968E-06
 0.095428	4.095764E-06
 0.100403	6.854248E-06
 0.105347	9.924316E-06
 0.110321	1.339722E-05
 0.115295	1.728821E-05
 0.120270	2.165527E-05
 0.125244	2.639771E-05
 0.130219	3.157959E-05
 0.135162	3.704834E-05
 0.140137	4.295349E-05
 0.145111	4.909058E-05
 0.150055	5.538940E-05
 0.155029	6.176758E-05
 0.160004	6.814575E-05
 0.164948	7.437134E-05
 0.169922	8.026123E-05
 0.174896	8.575439E-05
 0.179840	9.069824E-05
 0.184814	9.494019E-05
 0.189789	9.838867E-05
 0.194763	1.009521E-04
 0.199707	1.026306E-04
 0.204681	1.033630E-04
 0.209656	1.032410E-04
 0.214600	1.022644E-04
 0.219574	1.005859E-04
 0.224548	9.835815E-05
 0.229492	9.567261E-05
 0.234467	9.274292E-05
 0.239441	8.963013E-05
 0.244415	8.645630E-05
 0.249359	8.328247E-05
 0.254333	8.020020E-05
 0.259308	7.723999E-05
 0.264282	7.443237E-05
 0.269226	7.174683E-05
 0.274200	6.924438E-05
 0.279144	6.689453E-05
 0.284119	6.469727E-05
 0.289093	6.265259E-05
 0.294037	6.072998E-05
 0.299011	5.895996E-05
 0.303986	5.728149E-05
 0.308929	5.572510E-05
 0.313904	5.422974E-05
 0.318878	5.285645E-05
 0.323853	5.157471E-05
 0.328796	5.035400E-05
 0.333771	4.922485E-05
 0.338745	4.814148E-05
 0.343689	4.710999E-05
 0.348663	4.612732E-05
 0.353607	4.519653E-05
 0.358582	4.431152E-05
 0.363556	4.347534E-05
 0.368500	4.266968E-05
 0.373474	4.189758E-05
 0.378448	4.115601E-05
 0.383392	4.044800E-05
 0.388367	3.976440E-05
 0.393311	3.911438E-05
 0.398285	3.848267E-05
 0.403259	3.787231E-05
 0.408203	3.729248E-05
 0.413177	3.672485E-05
 0.418152	3.617554E-05
 0.423096	3.564453E-05
 0.428070	3.512268E-05
 0.433014	3.462219E-05
 0.437988	3.413391E-05
 0.442963	3.365784E-05
 0.447937	3.319702E-05
 0.452881	3.274536E-05
 0.457855	3.230591E-05
 0.462799	3.187561E-05
 0.467773	3.146057E-05
 0.472748	3.105469E-05
 0.477692	3.065796E-05
 0.482666	3.026733E-05
 0.487610	2.988586E-05
 0.492584	2.951660E-05
 0.497559	2.915649E-05
 0.499878	2.724304E-05
 0.494476	2.488098E-05
 0.489471	2.394714E-05
 0.484436	2.326050E-05
 0.479401	2.267456E-05
 0.474396	2.215576E-05
 0.469360	2.168274E-05
 0.464325	2.123718E-05
 0.459320	2.080994E-05
 0.454285	2.041016E-05
 0.449280	2.002258E-05
 0.444244	1.964722E-05
 0.439209	1.927795E-05
 0.434204	1.892395E-05
 0.429169	1.857910E-05
 0.424133	1.824036E-05
 0.419128	1.790466E-05
 0.414093	1.757202E-05
 0.409088	1.724854E-05
 0.404053	1.692200E-05
 0.399048	1.661377E-05
 0.394012	1.629333E-05
 0.389008	1.597900E-05
 0.383972	1.566162E-05
 0.378967	1.535034E-05
 0.373932	1.503906E-05
 0.368896	1.472473E-05
 0.363892	1.440430E-05
 0.358856	1.408691E-05
 0.353821	1.376953E-05
 0.348816	1.344299E-05
 0.343781	1.311340E-05
 0.338745	1.277771E-05
 0.333740	1.242981E-05
 0.328705	1.207581E-05
 0.323700	1.170044E-05
 0.318665	1.130371E-05
 0.313660	1.089172E-05
 0.308624	1.045837E-05
 0.303589	9.991455E-06
 0.298553	9.469604E-06
 0.293549	8.920288E-06
 0.288513	8.309937E-06
 0.283508	7.638550E-06
 0.278473	6.881714E-06
 0.273468	6.027222E-06
 0.268433	5.059814E-06
 0.263428	3.965454E-06
 0.258392	2.714844E-06
 0.253357	1.295471E-06
 0.248352	-3.259277E-07
 0.243317	-2.212219E-06
 0.238281	-4.344482E-06
 0.233276	-6.683350E-06
 0.228241	-9.466553E-06
 0.223236	-1.258850E-05
 0.218201	-1.607361E-05
 0.213165	-1.999512E-05
 0.208160	-2.432251E-05
 0.203125	-2.902222E-05
 0.198120	-3.413696E-05
 0.193085	-3.959656E-05
 0.188080	-4.531860E-05
 0.183044	-5.130005E-05
 0.178009	-5.740356E-05
 0.173004	-6.353760E-05
 0.167969	-6.951904E-05
 0.162964	-7.534790E-05
 0.157928	-8.081055E-05
 0.152924	-8.578491E-05
 0.147888	-9.020996E-05
 0.142883	-9.378052E-05
 0.137848	-9.652710E-05
 0.132843	-9.838867E-05
 0.127808	-9.930420E-05
 0.122803	-9.930420E-05
 0.117767	-9.841919E-05
 0.112762	-9.674072E-05
 0.107727	-9.442139E-05
 0.102722	-9.170532E-05
 0.097687	-8.865356E-05
 0.092682	-8.547974E-05
 0.087646	-8.221436E-05
 0.082642	-7.901001E-05
 0.077606	-7.586670E-05
 0.072601	-7.287598E-05
 0.067566	-7.003784E-05
 0.062561	-6.735229E-05
 0.057526	-6.484985E-05
 0.052490	-6.253052E-05
 0.047473	-6.033325E-05
 0.042450	-5.831909E-05
 0.037430	-5.642700E-05
 0.032410	-5.465698E-05
 0.027386	-5.303955E-05
 0.022363	-5.151367E-05
 0.017343	-5.010986E-05
 0.012326	-4.872131E-05
 0.007324	-4.743958E-05
 0.002286	-4.631653E-05
 -0.002734	-4.522095E-05
 -0.007758	-4.418640E-05
 -0.012775	-4.321594E-05
 -0.017795	-4.230042E-05
 -0.022815	-4.143372E-05
 -0.027835	-4.061890E-05
 -0.032855	-3.984680E-05
 -0.037875	-3.911743E-05
 -0.042896	-3.842468E-05
 -0.047916	-3.776245E-05
 -0.052887	-3.713379E-05
 -0.057892	-3.653870E-05
 -0.062927	-3.596497E-05
 -0.067963	-3.542786E-05
 -0.072968	-3.489685E-05
 -0.077972	-3.440247E-05
 -0.083008	-3.392639E-05
 -0.088013	-3.347168E-05
 -0.093018	-3.303223E-05
 -0.098053	-3.261108E-05
 -0.103058	-3.220520E-05
 -0.108093	-3.180847E-05
 -0.113098	-3.144531E-05
 -0.118103	-3.108215E-05
 -0.123138	-3.074036E-05
 -0.128143	-3.039856E-05
 -0.133179	-3.007813E-05
 -0.138184	-2.977295E-05
 -0.143188	-2.947083E-05
 -0.148224	-2.918396E-05
 -0.153229	-2.889709E-05
 -0.158264	-2.862854E-05
 -0.163269	-2.836304E-05
 -0.168274	-2.812195E-05
 -0.173309	-2.787476E-05
 -0.178314	-2.763977E-05
 -0.183350	-2.741089E-05
 -0.188354	-2.719421E-05
 -0.193390	-2.698364E-05
 -0.198395	-2.676697E-05
 -0.203430	-2.657471E-05
 -0.208435	-2.638550E-05
 -0.213440	-2.619324E-05
 -0.218475	-2.602844E-05
 -0.223480	-2.584229E-05
 -0.228485	-2.567749E-05
 -0.233521	-2.551270E-05
 -0.238556	-2.535706E-05
 -0.243561	-2.521667E-05
 -0.248566	-2.508240E-05
 -0.253601	-2.495117E-05
 -0.258606	-2.482910E-05
 -0.263641	-2.470398E-05
 -0.268646	-2.458496E-05
 -0.273651	-2.447815E-05
 -0.278687	-2.437134E-05
 -0.283691	-2.427063E-05
 -0.288727	-2.418213E-05
 -0.293732	-2.409668E-05
 -0.296600	-2.183533E-05
 -0.291626	-1.676636E-05
 -0.286652	-1.648254E-05
 -0.281677	-1.624146E-05
 -0.276703	-1.605835E-05
 -0.271759	-1.588135E-05
 -0.266754	-1.572266E-05
 -0.261810	-1.556396E-05
 -0.256836	-1.541748E-05
 -0.251862	-1.529846E-05
 -0.246887	-1.514893E-05
 -0.241913	-1.503906E-05
 -0.236938	-1.490479E-05
 -0.231964	-1.479797E-05
 -0.226990	-1.467285E-05
 -0.222046	-1.457520E-05
 -0.217072	-1.446533E-05
 -0.212097	-1.437683E-05
 -0.207123	-1.427612E-05
 -0.202179	-1.419373E-05
 -0.197205	-1.409607E-05
 -0.192230	-1.400757E-05
 -0.187256	-1.391602E-05
 -0.182281	-1.383057E-05
 -0.177307	-1.376038E-05
 -0.172333	-1.368103E-05
 -0.167358	-1.361389E-05
 -0.162415	-1.353455E-05
 -0.157440	-1.346130E-05
 -0.152466	-1.339417E-05
 -0.147522	-1.332703E-05
 -0.142548	-1.325989E-05
 -0.137573	-1.319580E-05
 -0.132599	-1.312866E-05
 -0.127625	-1.306152E-05
 -0.122681	-1.300354E-05
 -0.117706	-1.293335E-05
 -0.112732	-1.288452E-05
 -0.107788	-1.282959E-05
 -0.102783	-1.276855E-05
 -0.097839	-1.271362E-05
 -0.092865	-1.265564E-05
 -0.087891	-1.260376E-05
 -0.082947	-1.255188E-05
 -0.077972	-1.249390E-05
 -0.072998	-1.244202E-05
 -0.068054	-1.239014E-05
 -0.063080	-1.233521E-05
 -0.058105	-1.226501E-05
 -0.053131	-1.220703E-05
 -0.048215	-1.213989E-05
 -0.043246	-1.208191E-05
 -0.038281	-1.201477E-05
 -0.033310	-1.194153E-05
 -0.028345	-1.185608E-05
 -0.023376	-1.177063E-05
 -0.018411	-1.167908E-05
 -0.013446	-1.157837E-05
 -0.008481	-1.146545E-05
 -0.003500	-1.131897E-05

 Potential	  Scan 4   
 0.001459	-1.119690E-05
 0.006445	-1.100159E-05
 0.011395	-1.085510E-05
 0.016367	-1.064148E-05
 0.021335	-1.040649E-05
 0.026300	-1.012268E-05
 0.031271	-9.805298E-06
 0.036240	-9.432983E-06
 0.041202	-9.011841E-06
 0.046173	-8.483887E-06
 0.051147	-7.888794E-06
 0.056122	-7.196045E-06
 0.061096	-6.356812E-06
 0.066040	-5.383301E-06
 0.071014	-4.248962E-06
 0.075989	-2.905273E-06
 0.080963	-1.336060E-06
 0.085907	4.968262E-07
 0.090881	2.630005E-06
 0.095856	5.099487E-06
 0.100830	7.919312E-06
 0.105774	1.113281E-05
 0.110748	1.477051E-05
 0.115723	1.882629E-05
 0.120667	2.334290E-05
 0.125641	2.824402E-05
 0.130615	3.360291E-05
 0.135559	3.928528E-05
 0.140533	4.528809E-05
 0.145508	5.151367E-05
 0.150452	5.789185E-05
 0.155426	6.430054E-05
 0.160400	7.064819E-05
 0.165375	7.678223E-05
 0.170319	8.258057E-05
 0.175293	8.789063E-05
 0.180267	9.259033E-05
 0.185242	9.652710E-05
 0.190216	9.970093E-05
 0.195160	1.019897E-04
 0.200134	1.032715E-04
 0.205109	1.036987E-04
 0.210083	1.032104E-04
 0.215027	1.019897E-04
 0.220001	1.000671E-04
 0.224976	9.765625E-05
 0.229919	9.484863E-05
 0.234894	9.185791E-05
 0.239868	8.868408E-05
 0.244812	8.551025E-05
 0.249786	8.236694E-05
 0.254761	7.931519E-05
 0.259705	7.641602E-05
 0.264679	7.363892E-05
 0.269653	7.101440E-05
 0.274597	6.857300E-05
 0.279572	6.628418E-05
 0.284546	6.411743E-05
 0.289490	6.210327E-05
 0.294464	6.024170E-05
 0.299438	5.847168E-05
 0.304382	5.685425E-05
 0.309357	5.532837E-05
 0.314331	5.386353E-05
 0.319305	5.252075E-05
 0.324249	5.123901E-05
 0.329224	5.004883E-05
 0.334198	4.894104E-05
 0.339142	4.786377E-05
 0.344116	4.684753E-05
 0.349091	4.588013E-05
 0.354034	4.496460E-05
 0.359009	4.408875E-05
 0.363983	4.325867E-05
 0.368927	4.245605E-05
 0.373901	4.169617E-05
 0.378876	4.095764E-05
 0.383820	4.025879E-05
 0.388794	3.958740E-05
 0.393768	3.893433E-05
 0.398712	3.831177E-05
 0.403687	3.770142E-05
 0.408630	3.712463E-05
 0.413605	3.656006E-05
 0.418579	3.601074E-05
 0.423523	3.548584E-05
 0.428497	3.496704E-05
 0.433472	3.446960E-05
 0.438446	3.398132E-05
 0.443390	3.351135E-05
 0.448364	3.304749E-05
 0.453339	3.259888E-05
 0.458282	3.215027E-05
 0.463257	3.173218E-05
 0.468231	3.131714E-05
 0.473175	3.091431E-05
 0.478149	3.051453E-05
 0.483093	3.012695E-05
 0.488068	2.974854E-05
 0.493011	2.938232E-05
 0.497986	2.902222E-05
 0.500488	2.713013E-05
 0.494934	2.481995E-05
 0.489899	2.391052E-05
 0.484863	2.323303E-05
 0.479858	2.265930E-05
 0.474823	2.215271E-05
 0.469788	2.167969E-05
 0.464783	2.124329E-05
 0.459747	2.082520E-05
 0.454712	2.042542E-05
 0.449707	2.004395E-05
 0.444672	1.967163E-05
 0.439636	1.931152E-05
 0.434601	1.895752E-05
 0.429596	1.861572E-05
 0.424561	1.828003E-05
 0.419525	1.794739E-05
 0.414520	1.761780E-05
 0.409485	1.729736E-05
 0.404480	1.697693E-05
 0.399445	1.665955E-05
 0.394409	1.635132E-05
 0.389404	1.603394E-05
 0.384369	1.571960E-05
 0.379364	1.541138E-05
 0.374329	1.510010E-05
 0.369293	1.478577E-05
 0.364288	1.447449E-05
 0.359253	1.415710E-05
 0.354218	1.384277E-05
 0.349213	1.351929E-05
 0.344177	1.319275E-05
 0.339142	1.285400E-05
 0.334137	1.250610E-05
 0.329102	1.216125E-05
 0.324097	1.179504E-05
 0.319061	1.140137E-05
 0.314056	1.100159E-05
 0.309021	1.057129E-05
 0.303986	1.011353E-05
 0.298950	9.613037E-06
 0.293945	9.078979E-06
 0.288910	8.477783E-06
 0.283905	7.827759E-06
 0.278870	7.092285E-06
 0.273834	6.271362E-06
 0.268829	5.343628E-06
 0.263794	4.290161E-06
 0.258759	3.083496E-06
 0.253754	1.723022E-06
 0.248718	1.577759E-07
 0.243683	-1.627502E-06
 0.238678	-3.687744E-06
 0.233643	-5.938721E-06
 0.228638	-8.596802E-06
 0.223602	-1.162415E-05
 0.218597	-1.500549E-05
 0.213562	-1.876526E-05
 0.208557	-2.295837E-05
 0.203522	-2.754211E-05
 0.198486	-3.252258E-05
 0.193481	-3.790283E-05
 0.188477	-4.354553E-05
 0.183441	-4.946899E-05
 0.178406	-5.554199E-05
 0.173401	-6.167603E-05
 0.168365	-6.774902E-05
 0.163361	-7.366943E-05
 0.158325	-7.928467E-05
 0.153320	-8.444214E-05
 0.148285	-8.901978E-05
 0.143250	-9.292603E-05
 0.138245	-9.600830E-05
 0.133209	-9.817505E-05
 0.128204	-9.939575E-05
 0.123169	-9.970093E-05
 0.118164	-9.930420E-05
 0.113129	-9.771729E-05
 0.108124	-9.524536E-05
 0.103088	-9.280396E-05
 0.098083	-8.987427E-05
 0.093048	-8.673096E-05
 0.088043	-8.346558E-05
 0.083038	-8.023071E-05
 0.078003	-7.708740E-05
 0.072998	-7.406616E-05
 0.067963	-7.116699E-05
 0.062958	-6.838989E-05
 0.057922	-6.582642E-05
 0.052887	-6.344604E-05
 0.047870	-6.121826E-05
 0.042844	-5.914307E-05
 0.037823	-5.718994E-05
 0.032803	-5.538940E-05
 0.027780	-5.371094E-05
 0.022760	-5.215454E-05
 0.017737	-5.068970E-05
 0.012720	-4.930420E-05
 0.007715	-4.800110E-05
 0.002679	-4.683228E-05
 -0.002344	-4.570618E-05
 -0.007367	-4.465332E-05
 -0.012384	-4.365234E-05
 -0.017401	-4.272461E-05
 -0.022424	-4.184875E-05
 -0.027444	-4.101563E-05
 -0.032465	-4.021912E-05
 -0.037485	-3.947144E-05
 -0.042508	-3.876038E-05
 -0.047528	-3.809204E-05
 -0.052490	-3.745422E-05
 -0.057526	-3.684082E-05
 -0.062531	-3.626099E-05
 -0.067566	-3.570557E-05
 -0.072571	-3.517761E-05
 -0.077606	-3.467102E-05
 -0.082611	-3.418884E-05
 -0.087616	-3.372192E-05
 -0.092651	-3.327637E-05
 -0.097656	-3.285217E-05
 -0.102692	-3.243713E-05
 -0.107697	-3.203735E-05
 -0.112701	-3.165588E-05
 -0.117737	-3.129883E-05
 -0.122742	-3.094788E-05
 -0.127777	-3.060913E-05
 -0.132782	-3.027649E-05
 -0.137817	-2.996521E-05
 -0.142822	-2.966309E-05
 -0.147858	-2.936401E-05
 -0.152863	-2.908630E-05
 -0.157867	-2.880249E-05
 -0.162903	-2.854614E-05
 -0.167908	-2.828369E-05
 -0.172943	-2.803955E-05
 -0.177948	-2.780457E-05
 -0.182953	-2.757263E-05
 -0.187988	-2.734375E-05
 -0.193024	-2.712097E-05
 -0.198029	-2.691650E-05
 -0.203033	-2.672119E-05
 -0.208069	-2.652283E-05
 -0.213074	-2.633362E-05
 -0.218079	-2.615051E-05
 -0.223114	-2.597046E-05
 -0.228119	-2.581787E-05
 -0.233154	-2.564087E-05
 -0.238159	-2.548218E-05
 -0.243164	-2.533569E-05
 -0.248199	-2.518921E-05
 -0.253204	-2.505493E-05
 -0.258240	-2.493591E-05
 -0.263245	-2.481079E-05
 -0.268250	-2.468262E-05
 -0.273285	-2.456665E-05
 -0.278290	-2.446899E-05
 -0.283295	-2.436523E-05
 -0.288330	-2.427063E-05
 -0.293335	-2.417603E-05
 -0.296021	-2.134399E-05
 -0.291046	-1.685791E-05
 -0.286072	-1.658020E-05
 -0.281097	-1.634216E-05
 -0.276123	-1.615295E-05
 -0.271149	-1.596985E-05
 -0.266174	-1.581116E-05
 -0.261200	-1.565552E-05
 -0.256256	-1.549988E-05
 -0.251282	-1.536560E-05
 -0.246307	-1.523438E-05
 -0.241333	-1.511230E-05
 -0.236359	-1.499939E-05
 -0.231384	-1.487122E-05
 -0.226410	-1.476135E-05
 -0.221436	-1.465149E-05
 -0.216461	-1.454468E-05
 -0.211517	-1.444702E-05
 -0.206543	-1.434937E-05
 -0.201569	-1.426392E-05
 -0.196594	-1.417236E-05
 -0.191620	-1.407776E-05
 -0.186646	-1.399231E-05
 -0.181671	-1.391296E-05
 -0.176727	-1.381531E-05
 -0.171753	-1.374207E-05
 -0.166779	-1.367188E-05
 -0.161804	-1.359863E-05
 -0.156830	-1.352234E-05
 -0.151855	-1.345215E-05
 -0.146912	-1.338501E-05
 -0.141937	-1.331482E-05
 -0.136963	-1.324768E-05
 -0.131989	-1.317749E-05
 -0.127014	-1.311340E-05
 -0.122040	-1.304626E-05
 -0.117096	-1.299133E-05
 -0.112122	-1.292419E-05
 -0.107147	-1.287231E-05
 -0.102173	-1.281128E-05
 -0.097198	-1.275330E-05
 -0.092255	-1.269531E-05
 -0.087280	-1.264343E-05
 -0.082306	-1.259155E-05
 -0.077332	-1.253052E-05
 -0.072357	-1.252747E-05
 -0.067413	-1.242371E-05
 -0.062439	-1.236267E-05
 -0.057465	-1.229553E-05
 -0.052490	-1.223450E-05
 -0.047574	-1.216736E-05
 -0.042606	-1.210632E-05
 -0.037637	-1.203003E-05
 -0.032672	-1.195068E-05
 -0.027704	-1.186829E-05
 -0.022736	-1.178589E-05
 -0.017764	-1.168213E-05
 -0.012793	-1.156921E-05
 -0.007825	-1.145630E-05
 -0.002850	-1.131897E-05

 Potential	  Scan 5   
 0.002115	-1.116028E-05
 0.007098	-1.097107E-05
 0.012048	-1.081543E-05
 0.017020	-1.059875E-05
 0.021988	-1.033630E-05
 0.026956	-1.004028E-05
 0.031924	-9.710693E-06
 0.036896	-9.313965E-06
 0.041864	-8.859253E-06
 0.046832	-8.312988E-06
 0.051819	-7.684326E-06
 0.056793	-6.945801E-06
 0.061737	-6.069946E-06
 0.066711	-5.044556E-06
 0.071686	-3.842163E-06
 0.076660	-2.428589E-06
 0.081635	-7.568359E-07
 0.086578	1.166077E-06
 0.091553	3.430786E-06
 0.096527	6.069946E-06
 0.101501	9.020996E-06
 0.106445	1.236267E-05
 0.111420	1.615601E-05
 0.116394	2.037964E-05
 0.121338	2.503052E-05
 0.126312	3.012390E-05
 0.131287	3.560181E-05
 0.136261	4.142456E-05
 0.141205	4.755859E-05
 0.146179	5.380249E-05
 0.151154	6.024170E-05
 0.156128	6.665039E-05
 0.161072	7.293701E-05
 0.166046	7.897949E-05
 0.171021	8.465576E-05
 0.175964	8.978271E-05
 0.180939	9.426880E-05
 0.185883	9.796143E-05
 0.190857	1.007996E-04
 0.195831	1.027527E-04
 0.200806	1.037598E-04
 0.205750	1.038818E-04
 0.210724	1.031494E-04
 0.215698	1.016541E-04
 0.220642	9.954834E-05
 0.225616	9.698486E-05
 0.230591	9.411621E-05
 0.235535	9.103394E-05
 0.240509	8.786011E-05
 0.245453	8.465576E-05
 0.250427	8.154297E-05
 0.255402	7.855225E-05
 0.260376	7.568359E-05
 0.265320	7.293701E-05
 0.270294	7.040405E-05
 0.275238	6.799316E-05
 0.280212	6.573486E-05
 0.285187	6.362915E-05
 0.290131	6.164551E-05
 0.295105	5.981445E-05
 0.300079	5.807495E-05
 0.305054	5.648804E-05
 0.309998	5.499268E-05
 0.314972	5.355835E-05
 0.319946	5.221558E-05
 0.324921	5.096436E-05
 0.329865	4.977417E-05
 0.334839	4.869995E-05
 0.339783	4.764099E-05
 0.344757	4.664001E-05
 0.349731	4.567871E-05
 0.354675	4.477539E-05
 0.359650	4.391174E-05
 0.364624	4.308167E-05
 0.369568	4.229431E-05
 0.374542	4.153442E-05
 0.379486	4.081116E-05
 0.384460	4.012146E-05
 0.389435	3.944702E-05
 0.394379	3.880005E-05
 0.399353	3.817749E-05
 0.404327	3.757629E-05
 0.409271	3.700562E-05
 0.414246	3.644409E-05
 0.419220	3.589783E-05
 0.424164	3.536682E-05
 0.429138	3.485413E-05
 0.434113	3.435974E-05
 0.439087	3.387451E-05
 0.444031	3.340149E-05
 0.449005	3.294067E-05
 0.453949	3.249512E-05
 0.458923	3.206177E-05
 0.463898	3.163452E-05
 0.468842	3.121643E-05
 0.473816	3.081360E-05
 0.478790	3.041992E-05
 0.483734	3.003235E-05
 0.488708	2.965698E-05
 0.493652	2.929077E-05
 0.498627	2.893066E-05
 0.501099	2.705688E-05
 0.495575	2.478638E-05
 0.490540	2.389221E-05
 0.485504	2.322693E-05
 0.480499	2.266541E-05
 0.475464	2.216187E-05
 0.470428	2.170105E-05
 0.465424	2.126465E-05
 0.460388	2.085571E-05
 0.455353	2.045593E-05
 0.450348	2.007751E-05
 0.445313	1.971130E-05
 0.440277	1.935425E-05
 0.435242	1.900330E-05
 0.430237	1.866455E-05
 0.425201	1.833191E-05
 0.420197	1.799927E-05
 0.415161	1.767273E-05
 0.410156	1.734924E-05
 0.405121	1.703796E-05
 0.400085	1.672058E-05
 0.395081	1.640625E-05
 0.390076	1.609497E-05
 0.385040	1.578674E-05
 0.380005	1.548157E-05
 0.375000	1.516724E-05
 0.369965	1.486206E-05
 0.364960	1.454773E-05
 0.359924	1.423645E-05
 0.354919	1.392212E-05
 0.349884	1.359863E-05
 0.344879	1.327515E-05
 0.339844	1.294556E-05
 0.334839	1.259766E-05
 0.329803	1.224976E-05
 0.324799	1.188354E-05
 0.319763	1.150513E-05
 0.314728	1.110535E-05
 0.309692	1.068726E-05
 0.304688	1.023560E-05
 0.299652	9.744263E-06
 0.294647	9.222412E-06
 0.289612	8.648682E-06
 0.284607	8.004761E-06
 0.279572	7.296753E-06
 0.274536	6.503296E-06
 0.269531	5.621338E-06
 0.264526	4.611206E-06
 0.259491	3.454895E-06
 0.254456	2.133789E-06
 0.249451	6.353760E-07
 0.244415	-1.057129E-06
 0.239380	-3.049622E-06
 0.234375	-5.197144E-06
 0.229340	-7.754517E-06
 0.224335	-1.065979E-05
 0.219299	-1.391296E-05
 0.214264	-1.756897E-05
 0.209259	-2.164917E-05
 0.204224	-2.607422E-05
 0.199219	-3.095093E-05
 0.194183	-3.624573E-05
 0.189178	-4.181824E-05
 0.184143	-4.765015E-05
 0.179108	-5.364990E-05
 0.174103	-5.981445E-05
 0.169067	-6.594849E-05
 0.164063	-7.196045E-05
 0.159027	-7.769775E-05
 0.154022	-8.303833E-05
 0.148987	-8.786011E-05
 0.143951	-9.197998E-05
 0.138947	-9.530640E-05
 0.133911	-9.780884E-05
 0.128906	-9.933472E-05
 0.123871	-9.994507E-05
 0.118866	-9.960938E-05
 0.113831	-9.838867E-05
 0.108826	-9.646606E-05
 0.103790	-9.399414E-05
 0.098785	-9.112549E-05
 0.093750	-8.801270E-05
 0.088745	-8.477783E-05
 0.083710	-8.151245E-05
 0.078705	-7.833862E-05
 0.073669	-7.522583E-05
 0.068665	-7.229614E-05
 0.063660	-6.948853E-05
 0.058624	-6.686401E-05
 0.053619	-6.439209E-05
 0.048575	-6.210327E-05
 0.043555	-5.996704E-05
 0.038535	-5.798340E-05
 0.033511	-5.615234E-05
 0.028491	-5.441284E-05
 0.023474	-5.282593E-05
 0.018451	-5.133057E-05
 0.013428	-4.992676E-05
 0.008417	-4.858704E-05
 0.003384	-4.736938E-05
 -0.001633	-4.621582E-05
 -0.006656	-4.516907E-05
 -0.011676	-4.412537E-05
 -0.016696	-4.317017E-05
 -0.021722	-4.227295E-05
 -0.026746	-4.141235E-05
 -0.031769	-4.061584E-05
 -0.036789	-3.984985E-05
 -0.041809	-3.912354E-05
 -0.046832	-3.843994E-05
 -0.051788	-3.778687E-05
 -0.056824	-3.716431E-05
 -0.061829	-3.658447E-05
 -0.066864	-3.601379E-05
 -0.071869	-3.547058E-05
 -0.076904	-3.495789E-05
 -0.081940	-3.446655E-05
 -0.086945	-3.399353E-05
 -0.091949	-3.353271E-05
 -0.096985	-3.309937E-05
 -0.101990	-3.268433E-05
 -0.107025	-3.228760E-05
 -0.112030	-3.189697E-05
 -0.117065	-3.152771E-05
 -0.122070	-3.117676E-05
 -0.127106	-3.082581E-05
 -0.132141	-3.049927E-05
 -0.137146	-3.017273E-05
 -0.142151	-2.986450E-05
 -0.147186	-2.957153E-05
 -0.152222	-2.928162E-05
 -0.157227	-2.900085E-05
 -0.162262	-2.872620E-05
 -0.167267	-2.846375E-05
 -0.172302	-2.820740E-05
 -0.177307	-2.797852E-05
 -0.182343	-2.774048E-05
 -0.187347	-2.752686E-05
 -0.192383	-2.728882E-05
 -0.197388	-2.708435E-05
 -0.202423	-2.687378E-05
 -0.207458	-2.667847E-05
 -0.212463	-2.648926E-05
 -0.217499	-2.630005E-05
 -0.222504	-2.612610E-05
 -0.227509	-2.594910E-05
 -0.232544	-2.578735E-05
 -0.237579	-2.562256E-05
 -0.242584	-2.546997E-05
 -0.247620	-2.532043E-05
 -0.252625	-2.517090E-05
 -0.257660	-2.503967E-05
 -0.262665	-2.492676E-05
 -0.267700	-2.480774E-05
 -0.272705	-2.468872E-05
 -0.277740	-2.457275E-05
 -0.282745	-2.447510E-05
 -0.287781	-2.437134E-05
 -0.292786	-2.427979E-05
 -0.296448	-2.390137E-05
 -0.291473	-1.698608E-05
 -0.286530	-1.668701E-05
 -0.281555	-1.646423E-05
 -0.276581	-1.625977E-05
 -0.271606	-1.607971E-05
 -0.266632	-1.591492E-05
 -0.261688	-1.575928E-05
 -0.256714	-1.560974E-05
 -0.251740	-1.546631E-05
 -0.246765	-1.533203E-05
 -0.241791	-1.520386E-05
 -0.236816	-1.508179E-05
 -0.231842	-1.495972E-05
 -0.226868	-1.484985E-05
 -0.221924	-1.473389E-05
 -0.216949	-1.464844E-05
 -0.211975	-1.452026E-05
 -0.207001	-1.442566E-05
 -0.202026	-1.432800E-05
 -0.197083	-1.423950E-05
 -0.192108	-1.414795E-05
 -0.187134	-1.406860E-05
 -0.182159	-1.397400E-05
 -0.177185	-1.389771E-05
 -0.172241	-1.381226E-05
 -0.167267	-1.372986E-05
 -0.162292	-1.365051E-05
 -0.157318	-1.358032E-05
 -0.152344	-1.351013E-05
 -0.147400	-1.343689E-05
 -0.142426	-1.336670E-05
 -0.137451	-1.329041E-05
 -0.132477	-1.323547E-05
 -0.127533	-1.316528E-05
 -0.122559	-1.309814E-05
 -0.117584	-1.303711E-05
 -0.112610	-1.297913E-05
 -0.107635	-1.293335E-05
 -0.102661	-1.286011E-05
 -0.097717	-1.280518E-05
 -0.092743	-1.275024E-05
 -0.087769	-1.268616E-05
 -0.082825	-1.263428E-05
 -0.077850	-1.257629E-05
 -0.072876	-1.250305E-05
 -0.067902	-1.246338E-05
 -0.062927	-1.240234E-05
 -0.057953	-1.234436E-05
 -0.053009	-1.227722E-05
 -0.048093	-1.221313E-05
 -0.043124	-1.214294E-05
 -0.038156	-1.206970E-05
 -0.033188	-1.198730E-05
 -0.028223	-1.191101E-05
 -0.023257	-1.182251E-05
 -0.018289	-1.171875E-05
 -0.013324	-1.160889E-05
 -0.008359	-1.148682E-05
 -0.003384	-1.133423E-05
